Data from led_USB4H112691__6__11-28-36-541.txt Node

Date: Tue Dec 17 11:28:36 CET 2024
User: Etudiants TP
Spectrometer: USB4H11269
Trigger mode: 4
Integration Time (sec): 1,000000E0
Scans to average: 1
Electric dark correction enabled: true
Nonlinearity correction enabled: false
Boxcar width: 0
XAxis mode: Wavelengths
Number of Pixels in Spectrum: 3648
>>>>>Begin Spectral Data<<<<<
286,377	-1617,04
286,631	-1617,04
286,884	-1617,04
287,138	-1633,43
287,391	-1625,23
287,644	-814,24
287,896	-607,39
288,149	652,11
288,401	467,79
288,653	-554,15
288,905	-429,22
289,157	748,36
289,409	414,54
289,661	-384,16
289,912	-650,4
290,163	443,21
290,414	713,55
290,665	-634,02
290,916	-584,87
291,166	541,52
291,417	1078,08
291,667	-617,63
291,917	-326,82
292,167	492,37
292,417	389,97
292,666	-746,66
292,916	-640,16
293,165	488,27
293,414	668,49
293,663	-920,73
293,912	-689,31
294,16	738,12
294,408	678,73
294,657	-683,17
294,905	-375,97
295,153	541,52
295,4	709,45
295,648	-699,55
295,895	-605,35
296,143	144,21
296,39	801,61
296,637	-609,44
296,884	-638,11
297,13	598,86
297,377	856,9
297,623	-521,38
297,869	-314,53
298,115	664,4
298,361	660,3
298,606	-717,98
298,852	-607,39
299,097	586,57
299,342	971,59
299,587	-296,1
299,832	-527,52
300,077	705,35
300,322	557,9
300,566	-666,78
300,81	-392,36
301,054	557,9
301,298	815,94
301,542	-197,8
301,785	-339,11
302,029	1010,5
302,272	817,99
302,515	-724,13
302,758	-380,07
303,001	736,07
303,244	684,87
303,486	-502,95
303,729	-842,91
303,971	987,97
304,213	799,56
304,455	-801,95
304,696	-425,12
304,938	349,01
305,179	701,26
305,421	-412,84
305,662	-410,79
305,903	480,08
306,143	281,43
306,384	-414,88
306,625	-515,23
306,865	439,12
307,105	273,23
307,345	-404,64
307,585	-478,37
307,825	93,01
308,064	650,06
308,304	-539,81
308,543	-717,98
308,782	570,19
309,021	893,77
309,26	-281,77
309,499	-507,04
309,737	856,9
309,976	725,83
310,214	-664,74
310,452	-591,01
310,69	1166,15
310,928	289,62
311,165	-605,35
311,403	-568,48
311,64	955,21
311,878	602,96
312,115	-568,48
312,351	-474,28
312,588	316,24
312,825	858,95
313,061	-744,61
313,298	-17,58
313,534	209,75
313,77	858,95
314,006	-605,35
314,241	-629,92
314,477	660,3
314,713	1172,29
314,948	-566,43
315,183	279,38
315,418	893,77
315,653	598,86
315,888	-754,85
316,122	-294,05
316,357	244,56
316,591	832,33
316,825	-441,51
317,059	-584,87
317,293	1020,74
317,527	430,93
317,76	-687,26
317,994	-470,18
318,227	717,64
318,46	1114,95
318,693	-644,26
318,926	-378,02
319,159	80,72
319,391	490,32
319,624	-713,89
319,856	-498,85
320,088	774,99
320,321	596,81
320,552	-249
320,784	-507,04
321,016	799,56
321,247	111,44
321,479	-289,96
321,71	-328,87
321,941	-156,84
322,172	1069,89
322,403	-611,49
322,633	-339,11
322,864	881,48
323,094	291,66
323,325	-31,91
323,555	-609,44
323,785	267,09
324,014	217,94
324,244	-412,84
324,474	-316,58
324,703	971,59
324,933	850,76
325,162	-281,77
325,391	-838,81
325,62	-36,01
325,848	869,19
326,077	-439,46
326,306	-384,16
326,534	701,26
326,762	1006,41
326,99	-556,19
327,218	-244,9
327,446	799,56
327,674	144,21
327,901	-609,44
328,129	-568,48
328,356	803,66
328,583	183,12
328,81	-566,43
329,037	-435,36
329,264	351,06
329,491	834,38
329,717	-402,6
329,944	-625,83
330,17	420,69
330,396	234,32
330,622	-732,32
330,848	-322,73
331,074	504,65
331,299	1504,06
331,525	-584,87
331,75	-580,77
331,975	934,73
332,201	232,27
332,426	-793,76
332,65	-658,59
332,875	-124,07
333,1	299,86
333,324	-631,97
333,549	-593,06
333,773	299,86
333,997	512,85
334,221	-552,1
334,445	-619,68
334,668	525,13
334,892	1033,03
335,116	-298,15
335,339	-560,29
335,562	-99,5
335,785	529,23
336,008	-304,29
336,231	-564,39
336,454	-130,22
336,676	858,95
336,899	-437,41
337,121	-187,56
337,343	58,2
337,566	541,52
337,788	-429,22
338,009	-699,55
338,231	27,48
338,453	488,27
338,674	3179,3
338,896	-429,22
339,117	-31,91
339,338	1041,22
339,559	-597,15
339,78	-537,76
340,001	119,64
340,222	840,52
340,442	-437,41
340,663	-228,52
340,883	703,31
341,103	373,58
341,323	-504,99
341,543	-392,36
341,763	729,93
341,983	334,67
342,202	-597,15
342,422	-646,3
342,641	1184,58
342,861	516,94
343,08	-175,27
343,299	-701,6
343,518	660,3
343,736	686,92
343,955	-459,94
344,174	-660,64
344,392	881,48
344,61	117,59
344,829	-642,21
345,047	-519,33
345,265	605
345,483	861
345,7	-543,91
345,918	-195,75
346,136	117,59
346,353	783,18
346,57	-715,94
346,788	-640,16
347,005	330,58
347,222	13,14
347,438	-11,43
347,655	-515,23
347,872	148,31
348,088	1102,66
348,305	-369,83
348,521	-623,78
348,737	105,3
348,953	912,2
349,169	-134,31
349,385	-468,13
349,601	402,26
349,817	43,86
350,032	-142,5
350,248	-285,86
350,463	1227,59
350,678	-191,66
350,893	-652,45
351,108	-564,39
351,323	146,26
351,538	799,56
351,753	-652,45
351,967	-572,58
352,182	772,94
352,396	217,94
352,61	-576,67
352,824	-558,24
353,038	672,59
353,252	838,47
353,466	-378,02
353,68	-511,14
353,894	367,44
354,107	185,17
354,32	-369,83
354,534	-476,32
354,747	643,92
354,96	-146,6
355,173	-392,36
355,386	-674,98
355,599	537,42
355,811	176,98
356,024	-699,55
356,236	-447,65
356,449	285,52
356,661	371,54
356,873	-705,7
357,085	-838,81
357,297	648,01
357,509	621,39
357,721	-576,67
357,933	-502,95
358,144	246,61
358,356	234,32
358,567	-292,01
358,778	-613,54
358,989	865,1
359,2	242,51
359,411	-431,27
359,622	-380,07
359,833	406,35
360,044	332,62
360,254	-445,6
360,465	-629,92
360,675	490,32
360,885	437,07
361,096	-707,74
361,306	-507,04
361,516	279,38
361,726	449,36
361,935	-779,42
362,145	-543,91
362,355	457,55
362,564	488,27
362,774	-728,22
362,983	-689,31
363,192	940,87
363,401	226,13
363,61	-597,15
363,819	-189,61
364,028	494,41
364,237	996,17
364,445	-511,14
364,654	-298,15
364,862	435,02
365,071	144,21
365,279	-494,76
365,487	-543,91
365,695	559,95
365,903	381,78
366,111	-703,65
366,319	-533,67
366,527	619,34
366,734	381,78
366,942	-421,03
367,149	-705,7
367,357	-601,25
367,564	932,68
367,771	-466,08
367,978	-621,73
368,185	131,92
368,392	375,63
368,599	-240,81
368,806	-539,81
369,013	-142,5
369,219	498,51
369,426	-687,26
369,632	-232,62
369,838	1172,29
370,044	600,91
370,251	-517,28
370,457	-412,84
370,663	887,62
370,868	392,02
371,074	-556,19
371,28	-619,68
371,485	-140,46
371,691	654,16
371,896	-648,35
372,102	-654,5
372,307	1055,56
372,512	750,41
372,717	-609,44
372,922	-171,18
373,127	9,05
373,332	418,64
373,537	-367,78
373,741	-507,04
373,946	631,63
374,151	301,9
374,355	-599,2
374,559	-451,75
374,764	260,95
374,968	-298,15
375,172	-631,97
375,376	-240,81
375,58	531,28
375,784	105,3
375,987	-707,74
376,191	-478,37
376,395	82,77
376,598	281,43
376,802	-576,67
377,005	-281,77
377,208	236,37
377,412	103,25
377,615	-808,09
377,818	-601,25
378,021	197,46
378,224	-97,45
378,426	-535,71
378,629	-689,31
378,832	670,54
379,034	535,37
379,237	-869,53
379,439	-828,57
379,642	678,73
379,844	504,65
380,046	-785,57
380,248	-609,44
380,45	-117,93
380,652	-130,22
380,854	-492,71
381,056	-601,25
381,258	301,9
381,459	400,21
381,661	-625,83
381,862	-298,15
382,064	-19,63
382,265	129,88
382,467	-615,59
382,668	-410,79
382,869	727,88
383,07	410,45
383,271	-433,32
383,472	-603,3
383,673	645,96
383,874	463,69
384,074	-388,26
384,275	-707,74
384,476	521,04
384,676	1131,33
384,876	-646,3
385,077	-560,29
385,277	754,51
385,477	955,21
385,677	-670,88
385,878	-363,69
386,078	346,96
386,278	373,58
386,477	-197,8
386,677	-214,18
386,877	539,47
387,077	662,35
387,276	-287,91
387,476	-437,41
387,675	478,03
387,875	930,63
388,074	-683,17
388,273	-511,14
388,472	873,29
388,671	-150,7
388,87	-658,59
389,069	-56,49
389,268	-214,18
389,467	52,05
389,666	-765,09
389,865	-298,15
390,063	492,37
390,262	742,22
390,461	-578,72
390,659	-588,96
390,857	635,72
391,056	615,24
391,254	-679,07
391,452	-492,71
391,65	703,31
391,849	539,47
392,047	-418,98
392,245	-222,38
392,442	267,09
392,64	557,9
392,838	-195,75
393,036	-445,6
393,233	260,95
393,431	279,38
393,629	-720,03
393,826	-402,6
394,023	332,62
394,221	-165,03
394,418	-408,74
394,615	-220,33
394,812	-23,72
395,01	781,13
395,207	-517,28
395,404	-679,07
395,601	996,17
395,797	389,97
395,994	-642,21
396,191	-509,09
396,388	265,04
396,584	666,44
396,781	-298,15
396,977	4,95
397,174	611,15
397,37	-50,35
397,567	-316,58
397,763	-566,43
397,959	402,26
398,155	324,43
398,352	-404,64
398,548	-216,23
398,744	566,09
398,94	410,45
399,136	-642,21
399,331	-179,37
399,527	406,35
399,723	586,57
399,919	-298,15
400,114	-531,62
400,31	312,14
400,505	586,57
400,701	-443,56
400,896	-490,66
401,092	136,02
401,287	338,77
401,482	-683,17
401,678	-396,45
401,873	637,77
402,068	578,38
402,263	-343,21
402,458	-437,41
402,653	78,68
402,848	578,38
403,043	-375,97
403,237	-597,15
403,432	109,4
403,627	-201,9
403,822	-711,84
404,016	-515,23
404,211	168,79
404,405	643,92
404,6	-107,69
404,794	-210,09
404,989	529,23
405,183	97,11
405,377	-269,48
405,571	-117,93
405,766	424,78
405,96	254,8
406,154	-478,37
406,348	-349,35
406,542	562
406,736	449,36
406,93	-601,25
407,124	-279,72
407,318	322,38
407,511	342,86
407,705	-357,54
407,899	-576,67
408,092	553,8
408,286	357,2
408,48	-586,91
408,673	-486,56
408,867	129,88
409,06	365,39
409,253	-277,67
409,447	-242,85
409,64	625,48
409,833	406,35
410,026	-322,73
410,22	-359,59
410,413	574,28
410,606	398,16
410,799	-552,1
410,992	-482,47
411,185	310,1
411,378	977,73
411,571	-386,21
411,764	-351,4
411,956	619,34
412,149	473,93
412,342	-236,71
412,534	-357,54
412,727	527,18
412,92	463,69
413,112	-402,6
413,305	-72,87
413,497	758,6
413,69	611,15
413,882	-322,73
414,075	-132,26
414,267	500,56
414,459	365,39
414,652	-535,71
414,844	-445,6
415,036	496,46
415,228	824,14
415,42	-216,23
415,612	-433,32
415,804	942,92
415,997	553,8
416,188	-167,08
416,38	-253,09
416,572	226,13
416,764	660,3
416,956	-363,69
417,148	-394,4
417,34	299,86
417,531	-74,92
417,723	-484,52
417,915	-318,63
418,107	217,94
418,298	496,46
418,49	-320,68
418,681	-117,93
418,873	744,27
419,064	504,65
419,256	-203,94
419,447	-320,68
419,639	643,92
419,83	967,49
420,021	-154,79
420,213	-468,13
420,404	465,74
420,595	594,76
420,786	-146,6
420,978	-175,27
421,169	824,14
421,36	392,02
421,551	-306,34
421,742	-369,83
421,933	1028,93
422,124	660,3
422,315	-212,14
422,506	-259,24
422,697	699,21
422,888	365,39
423,079	60,24
423,27	-304,29
423,461	430,93
423,652	258,9
423,842	-388,26
424,033	-210,09
424,224	770,89
424,415	1178,44
424,605	-179,37
424,796	-238,76
424,987	709,45
425,177	725,83
425,368	-525,47
425,558	-398,5
425,749	334,67
425,939	410,45
426,13	66,39
426,32	-105,64
426,511	250,71
426,701	349,01
426,892	-162,98
427,082	-332,97
427,272	416,59
427,463	559,95
427,653	-132,26
427,843	-52,39
428,034	1135,43
428,224	738,12
428,414	-363,69
428,604	-64,68
428,795	748,36
428,985	783,18
429,175	41,81
429,365	72,53
429,555	760,65
429,745	533,33
429,935	-126,12
430,126	-23,72
430,316	867,14
430,506	904,01
430,696	-113,83
430,886	121,68
431,076	754,51
431,266	582,48
431,456	21,33
431,645	-146,6
431,835	463,69
432,025	697,16
432,215	-179,37
432,405	95,06
432,595	787,27
432,785	611,15
432,975	-105,64
433,164	-224,42
433,354	498,51
433,544	881,48
433,734	-271,53
433,923	113,49
434,113	670,54
434,303	693,07
434,493	131,92
434,682	27,48
434,872	990,02
435,062	287,57
435,251	86,87
435,441	33,62
435,631	1237,83
435,82	715,59
436,01	-162,98
436,2	127,83
436,389	621,39
436,579	1407,81
436,768	367,44
436,958	496,46
437,147	869,19
437,337	1184,58
437,527	258,9
437,716	68,44
437,906	1166,15
438,095	801,61
438,285	197,46
438,474	254,8
438,664	1364,8
438,853	1114,95
439,043	332,62
439,232	144,21
439,422	1151,81
439,611	1123,14
439,8	133,97
439,99	465,74
440,179	1194,82
440,369	1573,69
440,558	197,46
440,748	338,77
440,937	1004,36
441,126	1006,41
441,316	594,76
441,505	435,02
441,695	1387,33
441,884	1848,12
442,073	414,54
442,263	486,22
442,452	1104,71
442,642	1459,01
442,831	486,22
443,02	774,99
443,21	1741,63
443,399	2216,76
443,588	799,56
443,778	725,83
443,967	1995,57
444,156	1577,79
444,346	447,31
444,535	551,76
444,725	2126,64
444,914	1563,45
445,103	650,06
445,293	848,71
445,482	2046,77
445,671	1610,56
445,861	877,38
446,05	1037,13
446,239	1710,91
446,429	1420,1
446,618	688,97
446,807	1086,28
446,997	1768,25
447,186	1868,6
447,376	906,06
447,565	965,45
447,754	1956,66
447,944	2257,71
448,133	998,21
448,322	861
448,512	1585,98
448,701	2216,76
448,891	1004,36
449,08	1106,76
449,269	1299,27
449,459	1508,16
449,648	985,93
449,838	875,34
450,027	1581,89
450,217	1389,38
450,406	850,76
450,595	1178,44
450,785	1995,57
450,974	1991,48
451,164	918,34
451,353	1088,32
451,543	1819,45
451,732	2179,89
451,922	783,18
452,111	842,57
452,301	1432,38
452,49	1313,6
452,68	754,51
452,869	1346,37
453,059	1620,8
453,249	1997,62
453,438	459,6
453,628	1153,86
453,817	1606,46
454,007	1639,23
454,197	695,11
454,386	938,82
454,576	2067,25
454,765	1909,56
454,955	918,34
455,145	787,27
455,334	1600,32
455,524	1325,89
455,714	1065,8
455,904	709,45
456,093	2470,7
456,283	1768,25
456,473	815,94
456,663	676,68
456,852	1653,56
457,042	1663,8
457,232	873,29
457,422	1528,64
457,612	1782,59
457,802	2016,05
457,991	516,94
458,181	678,73
458,371	1798,97
458,561	1768,25
458,751	795,47
458,941	627,53
459,131	1530,69
459,321	1348,42
459,511	1016,65
459,701	852,81
459,891	1610,56
460,081	1299,27
460,271	762,7
460,461	693,07
460,651	2313,01
460,841	2284,34
461,032	793,42
461,222	832,33
461,412	1520,45
461,602	2462,51
461,792	555,85
461,983	643,92
462,173	1760,06
462,363	2415,41
462,554	924,49
462,744	830,28
462,934	1940,28
463,125	1768,25
463,315	607,05
463,505	881,48
463,696	1825,59
463,886	1344,32
464,077	791,37
464,267	783,18
464,458	2003,77
464,648	1364,8
464,839	959,3
465,03	949,06
465,22	1241,92
465,411	1688,38
465,601	832,33
465,792	799,56
465,983	1446,72
466,174	1831,74
466,364	451,41
466,555	805,71
466,746	1942,33
466,937	1366,85
467,128	807,75
467,319	861
467,51	1930,04
467,701	2478,9
467,891	783,18
468,082	813,9
468,274	1739,58
468,465	1276,74
468,656	1049,41
468,847	623,44
469,038	1323,84
469,229	1520,45
469,42	1055,56
469,612	840,52
469,803	2040,63
469,994	1946,42
470,185	920,39
470,377	734,03
470,568	1774,39
470,76	1907,51
470,951	1018,69
471,142	1168,2
471,334	2233,14
471,526	2007,86
471,717	1270,59
471,909	869,19
472,1	1676,09
472,292	1997,62
472,484	809,8
472,675	895,82
472,867	1854,27
473,059	2382,64
473,251	1166,15
473,443	1078,08
473,635	1979,19
473,826	2149,17
474,018	1041,22
474,21	1301,31
474,402	2136,88
474,595	2505,52
474,787	1293,12
474,979	1522,49
475,171	1891,13
475,363	1766,2
475,555	1143,62
475,748	1309,51
475,94	2429,74
476,132	2114,36
476,325	1286,98
476,517	1817,4
476,71	3091,24
476,902	2118,45
477,095	1389,38
477,287	1815,35
477,48	2657,07
477,673	2433,84
477,865	1706,81
478,058	1579,84
478,251	2573,1
478,444	3044,13
478,636	1766,2
478,829	1637,18
479,022	2802,47
479,215	2872,11
479,408	1889,08
479,601	2405,17
479,794	2499,38
479,988	2542,38
480,181	2237,24
480,374	2011,96
480,567	3003,18
480,76	3425,06
480,954	2102,07
481,147	1745,72
481,341	2843,43
481,534	2806,57
481,728	2261,81
481,921	2620,21
482,115	3388,19
482,308	3742,49
482,502	2247,48
482,696	2495,28
482,89	3988,25
483,084	3535,65
483,277	2569,01
483,471	2786,09
483,665	3814,17
483,859	4780,81
484,053	2511,66
484,247	2519,85
484,442	3652,38
484,636	3756,83
484,83	2915,11
485,024	3062,57
485,219	3805,98
485,413	3605,28
485,608	3095,33
485,802	3345,19
485,997	4512,53
486,191	4166,42
486,386	3246,88
486,58	3500,83
486,775	4215,57
486,97	4789
487,165	3474,21
487,36	3535,65
487,555	4625,17
487,75	4332,31
487,945	3937,05
488,14	3724,06
488,335	4453,14
488,53	4485,9
488,725	3855,13
488,92	4334,36
489,116	5462,79
489,311	5311,24
489,507	3955,48
489,702	4934,41
489,898	5706,49
490,093	5075,72
490,289	4938,51
490,485	4817,68
490,68	4932,36
490,876	5987,07
491,072	4655,89
491,268	4932,36
491,464	6025,98
491,66	6236,92
491,856	5012,23
492,052	5575,42
492,248	6607,6
492,445	6357,75
492,641	5280,52
492,837	5591,81
493,034	6736,62
493,23	7099,11
493,427	6271,73
493,623	5815,04
493,82	6918,89
494,017	7439,08
494,214	6175,48
494,41	6068,98
494,607	7308,01
494,804	7064,3
495,001	6501,11
495,198	6664,94
495,395	7803,61
495,593	7836,38
495,79	6796,01
495,987	6861,55
496,184	7328,49
496,382	8274,65
496,579	7164,65
496,777	7564
496,974	9200,33
497,172	8727,25
497,37	7815,9
497,568	7627,49
497,766	9650,88
497,963	8708,82
498,161	8092,38
498,359	8504,02
498,558	9675,46
498,756	9646,79
498,954	8377,05
499,152	8985,29
499,351	10015,42
499,549	9992,89
499,747	9083,59
499,946	9220,81
500,145	10093,24
500,343	10187,45
500,542	9366,21
500,741	9487,04
500,94	10990,25
501,139	11213,48
501,338	10166,97
501,537	10470,07
501,736	11829,92
501,935	11471,53
502,134	10332,86
502,334	10678,96
502,533	11856,54
502,733	11997,85
502,932	11055,79
503,132	11082,41
503,331	12145,31
503,531	12939,92
503,731	11688,61
503,931	11614,88
504,131	12456,6
504,331	13544,07
504,531	11969,18
504,731	12319,39
504,931	13542,02
505,132	13617,8
505,332	12550,81
505,532	12794,51
505,733	14193,28
505,933	14834,29
506,134	13257,36
506,335	13480,58
506,536	13996,67
506,736	15121,01
506,937	13767,3
507,138	13664,9
507,34	15688,29
507,541	15153,77
507,742	14375,55
507,943	14178,94
508,145	15583,85
508,346	15231,6
508,548	14697,08
508,749	15024,75
508,951	15342,19
509,153	16095,84
509,354	15309,42
509,556	15477,35
509,758	17095,25
509,96	16185,95
510,163	16179,81
510,365	16198,24
510,567	16710,23
510,769	16960,08
510,972	16388,7
511,174	17080,91
511,377	17119,82
511,58	18498,11
511,782	16595,54
511,985	16990,8
512,188	18633,27
512,391	18463,29
512,594	17211,98
512,797	17529,42
513,001	18934,32
513,204	19434,03
513,407	17758,79
513,611	18098,75
513,814	19360,3
514,018	19489,32
514,222	18473,53
514,425	18408
514,629	19505,71
514,833	19649,07
515,037	18874,93
515,241	18895,41
515,445	19571,24
515,65	19608,11
515,854	19309,1
516,059	19679,79
516,263	20646,43
516,468	20754,97
516,672	19778,09
516,877	20027,94
517,082	20453,92
517,287	20867,61
517,492	20179,49
517,697	20582,94
517,902	21289,49
518,107	21066,26
518,313	20625,95
518,518	20797,98
518,724	22266,37
518,929	21457,42
519,135	21142,03
519,341	20693,53
519,547	21983,75
519,753	22358,53
519,959	21191,19
520,165	21221,91
520,371	22266,37
520,577	23290,35
520,784	21066,26
520,99	21873,16
521,197	22716,92
521,404	22737,4
521,61	21451,28
521,817	21719,56
522,024	23431,66
522,231	22682,11
522,438	21752,33
522,645	22596,09
522,853	23206,39
523,06	23460,34
523,268	22755,83
523,475	22340,1
523,683	23671,28
523,891	23810,54
524,098	22456,83
524,306	22981,11
524,514	23960,04
524,722	23794,15
524,931	23122,42
525,139	22901,24
525,347	23618,03
525,556	24572,38
525,764	23523,82
525,973	23433,71
526,182	24525,28
526,391	23974,38
526,6	23280,11
526,809	23542,25
527,018	24441,31
527,227	24832,47
527,436	23998,95
527,646	23536,11
527,855	25010,65
528,065	24850,91
528,275	24099,3
528,484	23994,86
528,694	25035,22
528,904	25031,13
529,114	24383,97
529,325	24127,97
529,535	24967,64
529,745	25444,82
529,956	24570,33
530,166	24164,84
530,377	25455,06
530,588	25819,6
530,799	25176,53
531,01	24801,75
531,221	25928,14
531,432	25633,23
531,643	25143,77
531,855	25088,47
532,066	26259,91
532,278	25618,89
532,489	24949,21
532,701	24644,06
532,913	26882,49
533,125	25862,6
533,337	24824,28
533,549	25518,54
533,762	26300,87
533,974	26132,93
534,186	25307,6
534,399	25448,91
534,612	26517,95
534,825	26483,14
535,037	25547,22
535,25	25690,57
535,464	26200,52
535,677	26976,7
535,89	25709,01
536,104	26067,4
536,317	26579,39
536,531	26712,51
536,744	26010,06
536,958	25788,88
537,172	27136,44
537,386	26630,59
537,6	26304,96
537,815	26151,37
538,029	27070,9
538,244	27191,73
538,458	25870,79
538,673	26126,79
538,888	27357,62
539,103	27543,99
539,318	26765,76
539,533	26395,07
539,748	27417,01
539,963	27066,81
540,179	26337,73
540,394	26487,23
540,61	26612,16
540,826	27388,34
541,042	26417,6
541,258	26337,73
541,474	28101,03
541,69	27406,77
541,906	26997,18
542,123	26876,35
542,339	27873,71
542,556	27855,28
542,773	26573,25
542,99	27013,56
543,207	27855,28
543,424	27449,78
543,641	27255,22
543,858	27718,06
544,076	27980,2
544,293	27660,72
544,511	27300,28
544,729	27339,19
544,947	28035,5
545,165	28144,04
545,383	27331
545,601	27242,93
545,819	28553,63
546,038	28445,09
546,256	27732,4
546,475	27599,28
546,694	29258,13
546,913	28662,18
547,132	27828,65
547,351	27871,66
547,57	28529,06
547,79	28045,74
548,009	27969,96
548,229	27990,44
548,449	28602,78
548,668	29258,13
548,888	28189,1
549,109	28010,92
549,329	29288,85
549,549	28977,56
549,77	28170,66
549,99	28555,68
550,211	29643,15
550,432	29784,46
550,653	28158,38
550,874	28590,5
551,095	30130,57
551,316	29524,37
551,538	28617,12
551,759	28275,11
551,981	29628,82
552,203	29985,16
552,424	28899,74
552,646	29327,77
552,869	29768,08
553,091	29680,02
553,313	29116,83
553,536	29039
553,758	30165,39
553,981	29528,47
554,204	28948,89
554,427	29295
554,65	30169,48
554,873	29456,79
555,097	28965,28
555,32	28983,71
555,544	30456,2
555,768	30427,53
555,992	29403,54
556,216	29350,29
556,44	29989,26
556,664	30577,03
556,888	29983,12
557,113	29651,34
557,337	31385,97
557,562	30677,38
557,787	29581,71
558,012	29768,08
558,237	30761,34
558,462	30826,88
558,688	30329,22
558,913	30140,81
559,139	30466,44
559,365	30951,81
559,591	29841,81
559,817	29964,68
560,043	31205,75
560,269	31181,18
560,496	30280,07
560,722	30044,55
560,949	31625,59
561,176	30747,01
561,403	30353,8
561,63	30316,93
561,857	30521,73
562,084	30859,65
562,312	30548,36
562,539	30683,52
562,767	31881,58
562,995	31119,74
563,223	30620,03
563,451	31113,59
563,679	31394,17
563,908	31541,62
564,136	30763,39
564,365	30880,13
564,594	31396,21
564,823	32850,27
565,052	31095,16
565,281	30697,86
565,51	31828,34
565,74	31793,52
565,969	30679,43
566,199	31418,74
566,429	31932,78
566,659	32207,21
566,889	30904,7
567,119	31316,34
567,35	32727,39
567,58	32305,51
567,811	31299,96
568,042	31474,04
568,273	31900,01
568,504	32489,83
568,735	31410,55
568,966	31857,01
569,198	32108,91
569,43	32620,9
569,661	31760,75
569,893	32135,53
570,125	33069,4
570,358	32907,62
570,59	31469,94
570,822	31625,59
571,055	32934,24
571,288	32903,52
571,521	32084,33
571,754	31943,02
571,987	32921,95
572,22	32694,63
572,454	31910,25
572,687	31953,26
572,921	32493,93
573,155	32809,31
573,389	32532,84
573,623	32495,97
573,858	32723,3
574,092	33382,74
574,327	32182,63
574,561	32721,25
574,796	33001,82
575,031	33001,82
575,266	32375,14
575,502	32317,8
575,737	33331,54
575,973	32997,73
576,209	32125,29
576,445	32403,81
576,681	32893,28
576,917	33161,56
577,153	32168,3
577,39	32227,69
577,626	33216,86
577,863	32979,29
578,1	32213,35
578,337	32250,22
578,574	33098,08
578,812	33325,4
579,049	32842,08
579,287	32340,33
579,525	33532,25
579,763	33612,12
580,001	32258,41
580,239	32600,42
580,478	33708,37
580,716	33395,03
580,955	32334,18
581,194	32291,18
581,433	33937,74
581,672	33071,45
581,911	32594,28
582,151	32541,03
582,39	32938,33
582,63	33558,87
582,87	32280,94
583,11	32581,99
583,35	33122,65
583,591	33397,08
583,831	32325,99
584,072	32803,17
584,313	33196,38
584,554	33435,99
584,795	32581,99
585,036	32682,34
585,277	33792,34
585,519	33372,5
585,761	32276,84
586,003	32696,67
586,245	33331,54
586,487	33925,46
586,729	32563,56
586,972	32117,1
587,215	34283,85
587,457	32719,2
587,7	32622,95
587,944	32602,47
588,187	32835,94
588,43	32979,29
588,674	32233,83
588,918	32510,31
589,162	33538,39
589,406	32530,79
589,65	32287,08
589,894	32385,38
590,139	33243,48
590,384	33585,49
590,629	31721,84
590,874	32332,14
591,119	32837,98
591,364	32962,91
591,61	31940,97
591,855	31805,81
592,101	33587,54
592,347	33063,26
592,593	31844,72
592,84	32328,04
593,086	33565,01
593,333	32461,16
593,58	31359,35
593,827	31631,73
594,074	32504,17
594,321	31934,83
594,568	31570,29
594,816	31521,14
595,064	32455,01
595,312	32442,73
595,56	31320,44
595,808	31875,44
596,057	32199,02
596,305	32301,42
596,554	30921,09
596,803	31349,11
597,052	32641,38
597,301	32913,76
597,551	31150,46
597,8	31199,61
598,05	32579,94
598,3	32016,75
598,55	31050,11
598,8	31054,2
599,051	31797,62
599,301	31500,66
599,552	30550,4
599,803	30923,13
600,054	31953,26
600,305	31500,66
600,556	30894,46
600,808	30740,86
601,06	31435,13
601,312	31826,29
601,564	30769,54
601,816	30228,87
602,068	31920,49
602,321	31791,47
602,574	30364,04
602,827	29776,27
603,08	31224,18
603,333	31578,48
603,587	29968,78
603,84	30202,25
604,094	31447,41
604,348	30796,16
604,602	29512,08
604,856	30394,76
605,111	31271,29
605,365	31218,04
605,62	30210,44
605,875	29663,63
606,13	30525,83
606,386	30599,55
606,641	29485,46
606,897	29712,78
607,153	30390,66
607,409	30841,21
607,665	29338,01
607,921	29628,82
608,178	30089,61
608,435	30515,59
608,692	29313,43
608,949	29462,93
609,206	30235,02
609,463	30112,14
609,721	29237,66
609,979	29264,28
610,237	29639,06
610,495	30347,65
610,753	28879,26
611,012	28864,92
611,27	30542,21
611,529	29706,64
611,788	28916,12
612,047	28764,57
612,307	29057,43
612,566	29847,95
612,826	28387,75
613,086	28721,57
613,346	28819,87
613,606	29385,11
613,867	28283,3
614,127	28680,61
614,388	28584,35
614,649	29182,36
614,91	27666,86
615,172	28328,36
615,433	28205,48
615,695	28527,01
615,957	28252,58
616,219	27570,61
616,481	29036,95
616,743	28197,29
617,006	27359,67
617,269	27701,68
617,532	28799,39
617,795	28643,74
618,058	27107,77
618,322	27271,61
618,586	28432,8
618,849	27656,62
619,114	27470,26
619,378	26569,15
619,642	27642,29
619,907	28230,05
620,172	26253,76
620,437	26958,27
620,702	27724,21
620,967	27353,52
621,233	26446,27
621,499	26442,18
621,765	27003,32
622,031	27435,44
622,297	25967,05
622,564	26294,72
622,83	26507,71
623,097	27613,62
623,364	26415,55
623,631	26395,07
623,899	26972,6
624,166	27015,61
624,434	25414,1
624,702	25545,17
624,97	26849,72
625,239	26091,98
625,507	25217,49
625,776	25416,15
626,045	25934,28
626,314	25942,47
626,584	25129,43
626,853	25131,48
627,123	25453,01
627,393	25272,79
627,663	24560,09
627,933	24594,91
628,204	25682,38
628,474	25739,72
628,745	23812,59
629,016	24836,57
629,287	24973,78
629,559	25217,49
629,83	23722,48
630,102	23884,26
630,374	24779,23
630,646	25616,85
630,919	23607,79
631,191	23896,55
631,464	24777,18
631,737	23796,2
632,01	23347,7
632,284	22911,48
632,557	24543,71
632,831	24291,81
633,105	23032,31
633,379	22827,51
633,654	23413,23
633,928	23945,7
634,203	22768,12
634,478	22417,92
634,753	23556,59
635,028	23572,97
635,304	22567,42
635,58	22350,34
635,856	23169,52
636,132	22655,48
636,408	22143,49
636,685	22024,71
636,961	22688,25
637,238	22651,39
637,515	21934,6
637,793	21559,82
638,07	22938,1
638,348	22131,2
638,626	21897,74
638,904	21471,76
639,182	21930,5
639,461	21514,77
639,74	21076,5
640,019	21244,43
640,298	20804,12
640,577	21631,5
640,857	20531,74
641,136	20572,7
641,416	21363,22
641,696	22022,66
641,977	20525,6
642,257	20374,05
642,538	21320,21
642,819	21557,77
643,1	19829,29
643,382	19810,86
643,663	21045,78
643,945	20802,07
644,227	19722,79
644,509	19227,18
644,792	20883,99
645,074	20582,94
645,357	19524,14
645,64	18848,31
645,923	20054,56
646,207	20206,11
646,49	18928,18
646,774	19010,1
647,058	19601,96
647,342	20294,18
647,627	18715,19
647,911	18674,23
648,196	20032,04
648,481	19497,52
648,767	18426,43
649,052	18631,23
649,338	18903,6
649,624	19108,4
649,91	18031,17
650,196	17936,96
650,483	18979,38
650,77	19018,29
651,057	18022,98
651,344	17754,69
651,631	18465,34
651,919	18096,71
652,207	17480,27
652,495	17594,95
652,783	18440,76
653,071	18344,51
653,36	17025,62
653,649	17089,1
653,938	17908,29
654,227	18334,27
654,517	17128,02
654,806	16726,61
655,096	17193,55
655,387	17963,59
655,677	16585,3
655,968	16267,87
656,258	16779,86
656,549	17545,8
656,841	16382,56
657,132	16357,98
657,424	16734,81
657,716	17001,04
658,008	15932
658,3	15813,22
658,592	16749,14
658,885	16802,39
659,178	15614,57
659,471	15499,88
659,765	15833,7
660,058	16007,78
660,352	15194,73
660,646	15243,88
660,94	16519,77
661,235	16097,89
661,53	15471,21
661,824	14850,67
662,12	15805,03
662,415	15135,34
662,711	14615,16
663,006	14807,67
663,302	15293,04
663,599	14963,31
663,895	14174,85
664,192	14525,05
664,489	15383,15
664,786	15348,33
665,083	14004,86
665,381	13881,99
665,678	14834,29
665,976	14910,07
666,275	13542,02
666,573	13869,7
666,872	14015,1
667,171	14359,16
667,47	13398,66
667,769	13054,61
668,069	14711,41
668,368	14566,01
668,668	12841,62
668,969	12974,74
669,269	13728,39
669,57	13400,71
669,871	12974,74
670,172	12898,96
670,473	13818,5
670,775	13763,2
671,077	12343,96
671,379	12710,55
671,681	13625,99
671,983	13230,73
672,286	12268,19
672,589	12284,57
672,892	13165,2
673,196	12784,27
673,499	11846,3
673,803	11997,85
674,107	13114
674,411	12583,57
674,716	11768,48
675,021	11825,82
675,326	12448,41
675,631	12843,67
675,936	11375,27
676,242	11428,52
676,548	12004
676,854	12743,31
677,16	10941,1
677,467	11033,26
677,774	11991,71
678,081	11729,57
678,388	11231,91
678,696	11109,04
679,004	11885,22
679,312	12421,78
679,62	10595
679,928	10769,07
680,237	11793,06
680,546	10920,62
680,855	10621,62
681,164	10476,21
681,474	11295,4
681,784	11510,44
682,094	10222,27
682,404	9943,74
682,715	11358,89
683,026	10453,69
683,337	9822,91
683,648	10076,86
683,959	11365,03
684,271	10746,55
684,583	9693,89
684,895	9458,37
685,208	10754,74
685,52	10554,04
685,833	9728,7
686,146	9181,9
686,46	10828,46
686,773	10257,08
687,087	9323,21
687,401	9157,32
687,716	10072,76
688,03	10089,15
688,345	8772,3
688,66	9130,7
688,975	10062,52
689,291	10050,24
689,607	9335,49
689,923	8557,27
690,239	9472,71
690,555	9818,82
690,872	8446,68
691,189	8327,89
691,506	9556,68
691,824	9773,76
692,142	8200,92
692,459	8331,99
692,778	9081,55
693,096	9237,19
693,415	8420,05
693,734	8205,02
694,053	9034,44
694,372	8557,27
694,692	7881,44
695,012	7985,88
695,332	8418
695,652	8651,47
695,973	7908,06
696,294	7643,87
696,615	8504,02
696,936	8950,48
697,258	7267,05
697,579	7377,64
697,902	8104,67
698,224	8213,21
698,546	7244,52
698,869	7285,48
699,192	8024,79
699,516	8305,37
699,839	7262,95
700,163	7439,08
700,487	7508,71
700,811	8676,05
701,136	6677,23
701,461	6798,06
701,786	7975,64
702,111	8270,55
702,436	6619,89
702,762	7033,58
703,088	7856,86
703,415	8430,29
703,741	6816,49
704,068	6443,76
704,395	7330,53
704,722	7811,81
705,05	6425,33
705,377	6355,7
705,705	7418,6
706,034	7496,42
706,362	6009,59
706,691	5937,91
707,02	7254,76
707,349	7305,96
707,679	6243,06
708,009	5964,54
708,339	6916,84
708,669	6677,23
709	6111,99
709,33	5653,25
709,661	6953,71
709,993	6640,37
710,324	5733,12
710,656	5677,82
710,988	6875,88
711,321	6978,28
711,653	5489,41
711,986	5591,81
712,319	5853,95
712,652	6902,51
712,986	5917,44
713,32	5499,65
713,654	6740,72
713,988	6865,64
714,323	5413,63
714,658	5509,89
714,993	6308,6
715,328	5987,07
715,664	5292,8
716	5581,57
716,336	6734,57
716,673	5726,97
717,009	5341,96
717,346	5346,05
717,683	6533,87
718,021	5880,57
718,359	4879,11
718,697	4879,11
719,035	5774,08
719,373	5477,12
719,712	5077,77
720,051	4594,45
720,39	6111,99
720,73	5604,1
721,07	4551,44
721,41	4748,04
721,75	5845,76
722,091	5638,91
722,432	4414,23
722,773	4872,97
723,114	5468,93
723,456	5446,4
723,798	4330,26
724,14	4600,59
724,482	5014,28
724,825	5286,66
725,168	4549,39
725,511	4229,91
725,855	5028,62
726,198	4905,74
726,542	4080,41
726,887	4496,14
727,231	5460,74
727,576	4750,09
727,921	4270,87
728,266	4002,58
728,612	4891,4
728,958	5085,96
729,304	3869,47
729,651	4307,73
729,997	4688,65
730,344	4694,8
730,691	3732,25
731,039	4209,43
731,387	4741,9
731,735	4420,37
732,083	3709,72
732,431	3877,66
732,78	4498,19
733,129	3871,51
733,479	3511,07
733,828	3801,88
734,178	4446,99
734,528	3830,55
734,879	3660,57
735,23	3433,25
735,581	4471,57
735,932	4289,3
736,283	3396,39
736,635	3214,12
736,987	4715,28
737,34	4625,17
737,692	3226,4
738,045	3167,01
738,398	4199,19
738,752	4332,31
739,105	3083,05
739,459	3457,82
739,814	4467,47
740,168	4227,86
740,523	3011,37
740,878	3302,18
741,233	3932,95
741,589	4260,63
741,945	3005,22
742,301	3089,19
742,657	4125,46
743,014	3904,28
743,371	2863,91
743,728	3578,65
744,086	3711,77
744,444	3703,58
744,802	2745,13
745,16	2904,87
745,519	4076,31
745,878	3437,34
746,237	2710,32
746,597	2872,11
746,956	4092,69
747,316	3867,42
747,677	2523,95
748,037	2831,15
748,398	3461,92
748,759	3838,75
749,121	2884,39
749,482	2847,53
749,844	3345,19
750,207	3099,43
750,569	2179,89
750,932	2712,36
751,295	4133,65
751,659	3502,88
752,022	2413,36
752,386	2804,52
752,751	3320,61
753,115	2956,07
753,48	2349,87
753,845	2405,17
754,21	3238,69
754,576	3089,19
754,942	2112,31
755,308	2503,47
755,675	2958,12
756,041	3726,11
756,409	1966,9
756,776	2456,37
757,144	3742,49
757,511	3355,43
757,88	2306,87
758,248	1844,03
758,617	2556,72
758,986	3119,91
759,355	2292,53
759,725	2208,56
760,095	2587,44
760,465	3384,1
760,836	1825,59
761,206	2097,97
761,577	3287,84
761,949	2511,66
762,32	2130,74
762,692	1823,55
763,065	2749,23
763,437	2478,9
763,81	1690,43
764,183	1903,42
764,556	3302,18
764,93	2630,45
765,304	2208,56
765,678	2038,58
766,053	2540,33
766,428	2698,03
766,803	1676,09
767,178	1764,15
767,554	2124,6
767,93	2415,41
768,306	1624,89
768,683	1569,6
769,06	2777,9
769,437	2421,55
769,814	1448,77
770,192	1514,3
770,57	2380,59
770,948	3195,68
771,327	1731,39
771,706	1469,25
772,085	2552,62
772,464	2890,54
772,844	1751,87
773,224	1461,06
773,605	1946,42
773,985	2171,7
774,366	1555,26
774,748	1811,26
775,129	2628,4
775,511	2634,54
775,893	1340,22
776,276	1567,55
776,658	2794,28
777,041	2360,11
777,425	1170,24
777,808	1495,87
778,192	2100,02
778,576	2708,27
778,961	1051,46
779,346	1143,62
779,731	2284,34
780,116	1618,75
780,502	1231,68
780,888	1319,75
781,274	2186,04
781,661	1864,5
782,048	1000,26
782,435	1129,28
782,823	1997,62
783,21	2014,01
783,598	1182,53
783,987	1188,68
784,376	2366,26
784,765	1831,74
785,154	1233,73
785,544	1051,46
785,933	2280,24
786,324	1825,59
786,714	1282,88
787,105	973,64
787,496	2014,01
787,888	1604,41
788,279	922,44
788,671	947,01
789,064	2009,91
789,456	2073,4
789,849	791,37
790,242	912,2
790,636	1626,94
791,03	1989,43
791,424	901,96
791,818	2356,02
792,213	2147,12
792,608	1876,79
793,004	1172,29
793,399	643,92
793,795	1841,98
794,192	1528,64
794,588	750,41
794,985	590,67
795,382	1827,64
795,78	1598,27
796,178	967,49
796,576	768,84
796,974	2298,67
797,373	1663,8
797,772	631,63
798,172	848,71
798,571	1547,07
798,971	2057,01
799,372	754,51
799,772	793,42
800,173	2063,16
800,574	1602,36
800,976	703,31
801,378	594,76
801,78	1143,62
802,182	1139,52
802,585	678,73
802,988	627,53
803,392	1280,83
803,795	1151,81
804,199	602,96
804,604	602,96
805,008	1585,98
805,413	2042,68
805,819	781,13
806,224	439,12
806,63	1442,62
807,036	1489,73
807,443	508,75
807,85	629,58
808,257	1461,06
808,664	1413,95
809,072	799,56
809,48	799,56
809,889	1690,43
810,297	1569,6
810,706	871,24
811,116	463,69
811,526	1280,83
811,936	1243,97
812,346	435,02
812,757	424,78
813,167	1299,27
813,579	1262,4
813,99	598,86
814,402	455,5
814,814	1913,66
815,227	1250,11
815,64	244,56
816,053	529,23
816,467	1571,65
816,88	1278,79
817,294	711,5
817,709	625,48
818,124	1137,48
818,539	1790,78
818,954	545,61
819,37	625,48
819,786	912,2
820,202	1317,7
820,619	-11,43
821,036	361,3
821,453	1575,74
821,871	1274,69
822,289	250,71
822,707	273,23
823,126	1258,31
823,545	869,19
823,964	312,14
824,384	219,99
824,804	959,3
825,224	1385,28
825,645	494,41
826,065	150,36
826,487	1448,77
826,908	1411,9
827,33	318,29
827,752	643,92
828,175	1127,24
828,598	1354,56
829,021	619,34
829,444	906,06
829,868	1291,07
830,292	809,8
830,717	97,11
831,142	170,83
831,567	852,81
831,992	883,53
832,418	746,31
832,844	68,44
833,27	1063,75
833,697	957,25
834,124	-81,07
834,552	-76,97
834,979	1635,13
835,408	1055,56
835,836	-54,44
836,265	156,5
836,694	926,54
837,123	1198,92
837,553	-27,82
837,983	-154,79
838,413	1182,53
838,844	1186,63
839,275	-52,39
839,706	262,99
840,138	1626,94
840,57	830,28
841,003	29,52
841,435	217,94
841,868	762,7
842,302	840,52
842,735	162,64
843,169	-31,91
843,604	1065,8
844,039	1073,99
844,474	-40,11
844,909	0,85
845,345	1133,38
845,781	1098,56
846,217	-52,39
846,654	-173,22
847,091	1168,2
847,528	799,56
847,966	-66,73
848,404	-40,11
848,842	1579,84
849,281	209,75
849,72	50
850,16	-111,78
850,599	774,99
851,039	717,64
851,48	291,66
851,921	50
852,362	1016,65
852,803	1190,72
853,245	-361,64
853,687	-42,15
854,129	1053,51
854,572	660,3
855,015	-240,81
855,459	-115,88
855,903	398,16
856,347	1057,61
856,791	-76,97
857,236	-140,46
857,681	1264,45
858,127	1602,36
858,572	154,45
859,019	-81,07
859,465	1106,76
859,912	824,14
860,359	-201,9
860,807	-253,09
861,255	549,71
861,703	1082,18
862,151	-52,39
862,6	279,38
863,05	930,63
863,499	545,61
863,949	-60,59
864,4	-294,05
864,85	1377,09
865,301	959,3
865,752	-113,83
866,204	-185,51
866,656	504,65
867,109	1073,99
867,561	-191,66
868,014	78,68
868,468	961,35
868,921	1004,36
869,376	-105,64
869,83	-101,55
870,285	779,08
870,74	490,32
871,195	-36,01
871,651	-46,25
872,107	1291,07
872,564	504,65
873,021	-330,92
873,478	-298,15
873,936	899,91
874,394	899,91
874,852	-263,33
875,31	15,19
875,769	811,85
876,229	1356,61
876,688	-50,35
877,148	-146,6
877,609	594,76
878,069	465,74
878,531	31,57
878,992	-330,92
879,454	721,74
879,916	668,49
880,378	-101,55
880,841	-212,14
881,304	109,4
881,768	357,2
882,232	-363,69
882,696	-85,16
883,161	324,43
883,626	629,58
884,091	-162,98
884,557	-171,18
885,023	291,66
885,489	922,44
885,956	-443,56
886,423	-306,34
886,89	121,68
887,358	635,72
887,826	-95,4
888,295	-126,12
888,763	404,3
889,233	1190,72
889,702	-255,14
890,172	-224,42
890,642	504,65
891,113	432,97
891,584	129,88
892,055	-236,71
892,527	865,1
892,999	1012,55
893,472	-277,67
893,944	-91,31
894,417	635,72
894,891	254,8
895,365	-132,26
895,839	-150,7
896,314	727,88
896,789	-136,36
897,264	-298,15
897,74	-449,7
898,216	897,86
898,692	877,38
899,169	-306,34
899,646	-363,69
900,123	619,34
900,601	1178,44
901,079	-347,3
901,558	-246,95
902,037	846,66
902,516	613,2
902,996	-476,32
903,476	-535,71
903,956	430,93
904,437	901,96
904,918	-515,23
905,399	-478,37
905,881	824,14
906,363	697,16
906,846	-429,22
907,329	-224,42
907,812	211,79
908,296	701,26
908,78	-447,65
909,264	-433,32
909,749	316,24
910,234	834,38
910,719	-515,23
911,205	-128,17
911,691	62,29
912,178	621,39
912,665	95,06
913,152	-353,45
913,64	316,24
914,128	779,08
914,616	-285,86
915,105	-306,34
915,594	580,43
916,084	1143,62
916,574	-289,96
917,064	-474,28
917,555	172,88
918,046	754,51
918,537	43,86
919,029	-701,6
919,521	340,82
920,013	1065,8
920,506	-269,48
920,999	-478,37
921,493	873,29
921,987	334,67
922,481	-113,83
922,976	-357,54
923,471	316,24
923,967	611,15
924,462	-236,71
924,959	-314,53
925,455	656,2
925,952	455,5
926,449	-441,51
926,947	-384,16
927,445	455,5
927,944	426,83
928,442	-763,04
928,942	-605,35
929,441	789,32
929,941	236,37
930,442	-363,69
930,942	-466,08
931,443	680,78
931,945	111,44
932,447	-492,71
932,949	-404,64
933,451	262,99
933,954	471,89
934,458	-298,15
934,961	-461,99
935,465	357,2
935,97	226,13
936,475	-238,76
936,98	-515,23
937,486	-9,39
937,992	328,53
938,498	-384,16
939,005	-388,26
939,512	308,05
940,019	557,9
940,527	-271,53
941,035	-144,55
941,544	686,92
942,053	459,6
942,562	-68,78
943,072	-19,63
943,582	711,5
944,093	369,49
944,604	-568,48
945,115	-445,6
945,627	801,61
946,139	985,93
946,651	-390,31
947,164	-265,38
947,677	461,65
948,191	480,08
948,705	-478,37
949,219	-572,58
949,734	324,43
950,249	709,45
950,765	-332,97
951,281	-410,79
951,797	1483,58
952,314	811,85
952,831	-566,43
953,348	-677,02
953,866	688,97
954,384	252,75
954,903	-470,18
955,422	-640,16
955,941	439,12
956,461	430,93
956,981	-445,6
957,502	-279,72
958,023	596,81
958,544	596,81
959,066	-355,49
959,588	-584,87
960,11	154,45
960,633	926,54
961,156	-388,26
961,68	-384,16
962,204	840,52
962,729	21,33
963,253	-533,67
963,779	78,68
964,304	547,66
964,83	873,29
965,357	-670,88
965,883	-345,25
966,411	504,65
966,938	611,15
967,466	-384,16
967,994	-664,74
968,523	301,9
969,052	879,43
969,582	-535,71
970,112	-543,91
970,642	170,83
971,173	766,79
971,704	-511,14
972,235	-169,13
972,767	672,59
973,3	346,96
973,832	-314,53
974,365	-683,17
974,899	467,79
975,433	463,69
975,967	-543,91
976,502	-353,45
977,037	394,06
977,572	953,16
978,108	-607,39
978,644	-631,97
979,181	1104,71
979,718	688,97
980,255	-842,91
980,793	-371,88
981,331	-181,42
981,87	809,8
982,409	-445,6
982,948	-279,72
983,488	283,47
984,028	975,69
984,569	-294,05
985,11	-355,49
985,651	772,94
986,193	482,13
986,735	-687,26
987,278	-515,23
987,821	-64,68
988,364	232,27
988,908	-353,45
989,452	-576,67
989,997	-277,67
990,542	488,27
991,088	-560,29
991,633	-95,4
992,18	267,09
992,726	-122,02
993,273	-445,6
993,821	-425,12
994,369	414,54
994,917	758,6
995,465	-789,66
996,014	-738,46
996,564	664,4
997,114	160,59
997,664	-251,05
998,215	-613,54
998,766	539,47
999,317	-81,07
999,869	-349,35
1000,421	-584,87
1000,974	629,58
1001,527	684,87
1002,081	-509,09
1002,635	-224,42
1003,189	537,42
1003,744	721,74
1004,299	-746,66
1004,854	-513,19
1005,41	906,06
1005,967	164,69
1006,523	-470,18
1007,081	-386,21
1007,638	408,4
1008,196	432,97
1008,755	-621,73
1009,313	-412,84
1009,873	705,35
1010,432	47,96
1010,992	-320,68
1011,553	-396,45
1012,114	357,2
1012,675	29,52
1013,237	-314,53
1013,799	-173,22
1014,361	648,01
1014,924	-105,64
1015,487	-699,55
1016,051	-486,56
1016,615	650,06
1017,18	488,27
1017,745	-552,1
1018,31	-68,78
1018,876	875,34
1019,442	475,98
1020,009	-443,56
1020,576	-760,99
1021,143	316,24
1021,711	738,12
1022,28	-482,47
1022,848	-539,81
1023,417	734,03
1023,987	357,2
1024,557	-582,82
1025,127	-601,25
1025,698	0,85
1026,269	78,68
1026,841	-722,08
1027,413	-369,83
1027,985	250,71
1028,558	224,08
1029,131	-689,31
1029,705	-357,54
1030,279	439,12
1030,854	312,14
1031,429	-564,39
1032,004	-195,75
1032,58	658,25
1033,156	17,24
1033,733	-609,44
1034,31	-625,83
1034,887	639,82
1035,465	680,78
1036,043	-873,63
1036,622	-521,38
1037,201	234,32
1037,781	555,85
1038,361	-572,58
1038,941	-691,36
1039,522	381,78
1040,103	844,62
1040,685	-535,71
1041,267	-208,04
1041,85	1233,73
1042,433	531,28
1043,016	-576,67
1043,6	-472,23
1044,184	-296,1
1044,769	631,63
1045,354	-437,41
1045,939	-593,06
1046,525	277,33
1047,111	422,73
1047,698	-347,3
1048,285	-752,8
1048,873	523,09
1049,461	-52,39
1050,049	-605,35
1050,638	-576,67
1051,228	17,24
1051,817	774,99
1052,407	-617,63
1052,998	-171,18
1053,589	490,32
1054,18	475,98
1054,772	-836,77
1055,365	-703,65
1055,957	467,79
1056,55	234,32
1057,144	-404,64
1057,738	-609,44
1058,333	168,79
1058,927	31,57
1059,523	-531,62
1060,118	-621,73
1060,715	-56,49
1061,311	600,91
1061,908	-599,2
1062,506	-457,89
1063,103	562
1063,702	-36,01
1064,3	-871,58
1064,9	-646,3
1065,499	861
1066,099	37,72
1066,7	-591,01
1067,301	-789,66
1067,902	805,71
1068,504	754,51
1069,106	-281,77
1069,709	-312,49
1070,312	815,94
1070,915	463,69
1071,519	-629,92
1072,123	-355,49
1072,728	662,35
1073,333	287,57
1073,939	-322,73
1074,545	-484,52
1075,152	451,41
1075,759	-19,63
1076,366	-681,12
1076,974	-326,82
1077,582	328,53
1078,191	736,07
1078,8	-490,66
1079,41	-832,67
1080,02	262,99
1080,63	463,69
1081,241	-101,55
1081,852	-781,47
1082,464	449,36
1083,076	389,97
1083,689	-611,49
1084,302	-492,71
1084,915	791,37
1085,529	529,23
1086,144	-568,48
1086,759	-484,52
1087,374	84,82
1087,99	226,13
1088,606	-650,4
1089,222	-513,19
1089,839	574,28
1090,457	297,81
1091,075	-468,13
1091,693	-797,85
1092,312	488,27
1092,931	789,32
1093,551	-705,7
1094,171	-283,81
1094,792	463,69
1095,413	209,75
1096,034	-521,38
1096,656	-482,47
1097,278	613,2
1097,901	275,28
1098,524	-556,19
1099,148	-335,01
1099,772	983,88
1100,397	383,82
1101,022	-664,74
1101,647	-539,81
1102,273	430,93
1102,899	639,82
1103,526	-943,26
1104,153	-380,07
1104,781	680,78
1105,409	811,85
1106,038	-584,87
1106,667	-777,37
1107,296	131,92
1107,926	193,36
1108,556	-150,7
1109,187	-511,14
1109,818	262,99
1110,45	605
1111,082	-517,28
1111,715	-478,37
1112,348	369,49
1112,981	238,42
1113,615	-265,38
1114,25	-421,03
1114,885	156,5
1115,52	119,64
1116,156	-691,36
1116,792	-519,33
1117,428	467,79
1118,066	160,59
1118,703	-296,1
1119,341	-550,05
1119,98	627,53
1120,618	840,52
1121,258	-699,55
1121,898	-752,8
1122,538	344,91
1123,179	-54,44
1123,82	-498,85
1124,461	-410,79
1125,103	688,97
1125,746	226,13
1126,389	-427,17
1127,032	-715,94
1127,676	484,17
1128,32	682,83
1128,965	-408,74
1129,61	-447,65
1130,256	226,13
1130,902	684,87
1131,549	-539,81
1132,196	-550,05
1132,844	731,98
1133,491	637,77
1134,14	-552,1
1134,789	-482,47
1135,438	1055,56
1136,088	181,07
1136,738	-699,55
1137,389	-691,36
1138,04	545,61
1138,692	914,25
1139,344	-648,35
1139,996	-582,82
1140,649	508,75
1141,303	625,48
1141,957	-396,45
1142,611	-523,43
1143,266	389,97
1143,921	371,54
1144,577	-564,39
1145,233	-560,29
1145,89	95,06
1146,547	562
1147,205	-769,18
1147,863	-421,03
1148,521	318,29
1149,18	660,3
1149,84	-724,13
1150,5	-642,21
1151,16	271,19
1151,821	801,61
1152,482	-466,08
1153,144	-25,77
1153,806	334,67
1154,469	480,08
1155,132	-720,03
1155,796	-445,6
1156,46	586,57
1157,124	877,38
1157,789	-642,21
1158,455	-580,77
1159,121	353,1
1159,787	29,52
1160,454	-504,99
1161,121	-427,17
1161,789	222,03
1162,457	580,43
1163,126	-531,62
1163,795	-535,71
1164,465	400,21
1165,135	142,16
1165,806	-531,62
1166,477	-410,79
1167,148	-466,08
1167,82	414,54
1168,493	-732,32
1169,166	-343,21
1169,839	-3,24
1170,513	373,58
1171,187	-683,17
1171,862	-570,53
1172,537	287,57
1173,213	467,79
1173,889	-597,15
1174,566	-617,63
1175,243	709,45
1175,921	219,99
1176,599	-400,55
1177,278	-257,19
1177,957	-19,63
1178,636	824,14
1179,316	-412,84
1179,997	-781,47
1180,678	611,15
1181,359	861
1182,041	-619,68
1182,723	-738,46
1183,406	613,2
1184,089	-1,19
1184,773	-703,65
1185,457	-728,22
1186,142	82,77
1186,827	1278,79
1187,513	-648,35
1188,199	-212,14
1188,886	138,07
1189,573	414,54
1190,26	-576,67
1190,948	-562,34
1191,637	17,24
1192,326	154,45
1193,015	-668,83
1193,705	-765,09
1194,396	-36,01
1195,087	258,9
1195,778	-441,51
1196,47	-650,4
1197,162	447,31
1197,855	465,74
1198,548	-550,05
1199,242	-896,16
1199,936	287,57
1200,631	656,2
1201,326	-789,66
1202,022	-664,74
1202,718	768,84
1203,415	344,91
1204,112	-904,35
1204,81	-490,66
1205,508	146,26
1206,206	973,64
1206,905	-531,62
1207,605	-724,13
1208,305	252,75
1209,005	373,58
1209,706	-752,8
1210,408	-695,46
1211,11	258,9
1211,812	408,4
1212,515	-457,89
1213,218	-562,34
1213,922	385,87
1214,627	299,86
1215,331	-494,76
1216,037	-490,66
1216,743	-60,59
1217,449	465,74
1218,156	-429,22
1218,863	-421,03
1219,571	299,86
1220,279	803,66
1220,988	-679,07
1221,697	-511,14
1222,406	570,19
1223,117	109,4
1223,827	-521,38
1224,538	-611,49
1225,25	359,25
1225,962	418,64
1226,675	-896,16
1227,388	-535,71
1228,101	226,13
1228,815	58,2
1229,53	-375,97
1230,245	-502,95
1230,961	357,2
1231,677	222,03
1232,393	-513,19
1233,11	-572,58
1233,828	1086,28
1234,546	418,64
1235,264	-554,15
1235,983	-267,43
1236,702	961,35
1237,422	250,71
1238,143	-351,4
1238,864	-679,07
1239,585	643,92
1240,307	-240,81
1241,029	-773,28
1241,752	-251,05
1242,476	545,61
1243,2	811,85
1243,924	-525,47
1244,649	-515,23
1245,374	639,82
1246,1	840,52
1246,826	-847,01
1247,553	-500,9
1248,28	504,65
1249,008	496,46
1249,737	-726,18
1250,465	-421,03
1251,195	480,08
1251,925	711,5
1252,655	-568,48
1253,386	-273,57
1254,117	320,34
1254,849	99,16
1255,581	-552,1
1256,314	-421,03
1257,047	680,78
1257,781	457,55
1258,515	-550,05
1259,25	-134,31
1259,985	267,09
1260,721	359,25
1261,457	-461,99
1262,194	-834,72
1262,931	226,13
1263,669	756,55
1264,407	-439,46
1265,146	-713,89
1265,885	316,24
1266,625	279,38
1267,365	-584,87
1268,106	-560,29
1268,847	416,59
1269,589	13,14
1270,331	-359,59
1271,074	-474,28
1271,817	385,87
1272,561	447,31
1273,305	-281,77
1274,05	-396,45
1274,795	373,58
1275,541	349,01
1276,287	-861,34
1277,034	-720,03
1277,781	64,34
1278,529	652,11
1279,277	-847,01
1280,026	-801,95
1280,775	697,16
1281,525	-412,84
1282,275	-795,81
1283,026	-177,32
1283,777	379,73
1284,529	496,46
1285,281	-457,89
1286,034	-801,95
1286,788	764,75
1287,541	283,47
1288,296	-887,97
1289,051	-404,64
1289,806	394,06
1290,562	611,15
1291,318	-658,59
1292,075	-519,33
1292,832	672,59
1293,59	772,94
1294,349	-631,97
1295,108	-494,76
1295,867	1008,45
1296,627	629,58
1297,387	-785,57
1298,148	-496,8
1298,91	209,75
1299,672	19,29
1300,434	-582,82
1301,197	-670,88
1301,961	1221,44
1302,725	332,62
1303,489	-380,07
1304,254	-484,52
1305,02	426,83
1305,786	861
1306,552	-879,77
1307,319	-822,43
1308,087	850,76
1308,855	750,41
1309,624	-625,83
1310,393	-519,33
1311,162	-257,19
1311,933	539,47
1312,703	-599,2
1313,474	-461,99
1314,246	310,1
1315,018	598,86
1315,791	-199,85
1316,564	-695,46
1317,338	594,76
1318,112	240,47
1318,887	-797,85
1319,662	-607,39
1320,438	387,92
1321,214	78,68
1321,991	-343,21
1322,769	-703,65
1323,546	328,53
1324,325	39,76
1325,104	-666,78
1325,883	-421,03
1326,663	-113,83
1327,444	426,83
1328,224	-597,15
1329,006	-429,22
1329,788	383,82
1330,571	340,82
1331,354	-218,28
1332,137	-752,8
1332,921	691,02
1333,706	-31,91
1334,491	-402,6
1335,277	-437,41
1336,063	144,21
1336,849	262,99
1337,637	-650,4
1338,424	-617,63
1339,213	889,67
1340,001	744,27
1340,791	-699,55
1341,581	-404,64
1342,371	504,65
1343,162	316,24
1343,953	-582,82
1344,745	-437,41
1345,537	422,73
1346,33	521,04
1347,124	-623,78
1347,918	-339,11
1348,712	942,92
1349,507	535,37
1350,303	-609,44
1351,099	-425,12
1351,896	95,06
1352,693	-193,7
1353,49	-478,37
1354,289	-531,62
1355,087	469,84
1355,887	774,99
1356,686	-375,97
1357,487	-650,4
1358,288	37,72
1359,089	285,52
1359,891	-218,28
1360,693	-459,94
1361,496	-101,55
1362,3	293,71
1363,104	-670,88
1363,908	-523,43
1364,713	791,37
1365,519	858,95
1366,325	-601,25
1367,131	-806,05
1367,939	260,95
1368,746	799,56
1369,555	-892,06
1370,363	-470,18
1371,173	803,66
1371,982	1282,88
1372,793	-617,63
1373,604	-830,62
1374,415	484,17
1375,227	713,55
1376,039	-703,65
1376,852	-613,54
1377,666	1008,45
1378,48	363,34
1379,295	-722,08
1380,11	-732,32
1380,925	-44,2
1381,742	840,52
1382,558	-580,77
1383,376	-582,82
1384,193	299,86
1385,012	176,98
1385,831	-670,88
1386,65	-548
1387,47	193,36
1388,29	82,77
1389,111	-597,15
1389,933	-756,9
1390,755	635,72
1391,578	353,1
1392,401	-758,94
1393,225	-584,87
1394,049	856,9
1394,873	332,62
1395,699	-621,73
1396,525	-464,04
1397,351	615,24
1398,178	17,24
1399,005	-560,29
1399,833	-986,27
1400,662	580,43
1401,491	908,1
1402,321	-552,1
1403,151	-519,33
1403,981	402,26
1404,813	625,48
1405,644	-380,07
1406,477	-738,46
1407,309	293,71
1408,143	1039,17
1408,977	-631,97
1409,811	-558,24
1410,646	949,06
1411,482	799,56
1412,318	-461,99
1413,155	-670,88
1413,992	678,73
1414,829	-42,15
1415,668	-584,87
1416,506	-332,97
1417,346	785,23
1418,186	394,06
1419,026	-713,89
1419,867	-826,53
1420,709	734,03
1421,551	586,57
1422,393	-863,39
1423,236	-392,36
1424,08	430,93
1424,924	318,29
1425,769	-715,94
1426,614	-580,77
1427,46	496,46
1428,307	242,51
1429,154	-847,01
1430,001	-707,74
1430,849	320,34
1431,698	209,75
1432,547	-736,42
1433,397	-920,73
1434,247	613,2
1435,098	854,86
1435,949	-572,58
1436,801	-539,81
1437,653	121,68
1438,506	660,3
1439,36	-855,2
1440,214	-656,54
1441,069	537,42
1441,924	402,26
1442,78	-666,78
1443,636	-720,03
1444,493	201,55
1445,35	473,93
1446,208	-404,64
1447,067	-654,5
1447,926	383,82
1448,785	807,75
1449,645	-470,18
1450,506	-697,5
1451,367	455,5
1452,229	152,4
1453,091	-740,51
1453,954	-281,77
1454,818	166,74
1455,682	406,35
1456,546	-621,73
1457,412	-842,91
1458,277	738,12
1459,143	273,23
1460,01	-388,26
1460,878	-822,43
1461,745	320,34
1462,614	129,88
1463,483	-801,95
1464,352	-392,36
1465,223	746,31
1466,093	721,74
1466,964	-699,55
1467,836	-814,24
1468,709	615,24
1469,581	228,18
1470,455	-531,62
1471,329	-638,11
1472,203	70,48
1473,079	201,55
1473,954	-220,33
1474,831	-677,02
1475,707	179,03
1476,585	236,37
1477,463	-609,44
1478,341	-625,83
1479,22	2,9
1480,1	355,15
1480,98	-773,28
1481,861	-744,61
1482,742	492,37
1483,624	586,57
1484,506	-484,52
1485,389	-494,76
1486,273	262,99
1487,157	269,14
1488,041	-658,59
1488,926	-834,72
1489,812	400,21
1490,699	340,82
1491,585	-691,36
1492,473	-548
1493,361	-142,5
1494,249	230,23
1495,139	-468,13
1496,028	-502,95
1496,919	0,85
1497,809	461,65
1498,701	-681,12
1499,593	-502,95
1500,485	277,33
1501,378	709,45
1502,272	-224,42
1503,166	-509,09
1504,061	832,33
1504,956	449,36
1505,852	-625,83
1506,749	-797,85
1507,646	508,75
1508,543	277,33
1509,442	-804
1510,34	-115,88
1511,24	992,07
1512,14	326,48
1513,04	-693,41
1513,941	-765,09
1514,843	1137,48
1515,745	13,14
1516,648	-595,11
1517,551	-763,04
1518,455	-64,68
1519,359	-275,62
1520,264	-668,83
1521,17	-855,2
1522,076	209,75
1522,983	475,98
1523,89	-681,12
1524,798	-421,03
1525,706	418,64
1526,615	1280,83
1527,525	-703,65
1528,435	-541,86
1529,346	611,15
1530,257	82,77
1531,169	-396,45
1532,081	-605,35
1532,994	1076,04
1533,908	234,32
1534,822	-613,54
1535,737	-470,18
1536,652	471,89
1537,568	252,75
1538,484	-609,44
1539,401	-933,02
1540,319	918,34
1541,237	-146,6
1542,156	-760,99
1543,075	-650,4
1543,995	1049,41
1544,916	977,73
1545,837	-679,07
1546,758	-763,04
1547,68	566,09
1548,603	619,34
1549,527	-470,18
1550,451	-765,09
1551,375	439,12
1552,3	742,22
1553,226	-869,53
1554,152	-713,89
1555,079	779,08
1556,006	357,2
1556,934	-453,8
1557,863	-482,47
1558,792	885,58
1559,722	95,06
1560,652	-543,91
1561,583	-871,58
1562,514	-68,78
1563,446	158,55
1564,379	-1010,84
1565,312	-509,09
1566,246	629,58
1567,18	375,63
1568,115	-504,99
1569,051	-674,98
1569,987	768,84
1570,924	947,01
1571,861	-795,81
1572,799	-623,78
1573,737	619,34
1574,676	308,05
1575,616	-533,67
1576,556	-687,26
1577,497	-7,34
1578,438	158,55
1579,38	-705,7
1580,323	-550,05
1581,266	504,65
1582,21	750,41
1583,154	-699,55
1584,099	-674,98
1585,044	455,5
1585,99	787,27
1586,937	-369,83
1587,884	-564,39
1588,832	219,99
1589,78	918,34
1590,729	-588,96
1591,679	-285,86
1592,629	379,73
1593,58	447,31
1594,531	-533,67
1595,483	-427,17
1596,435	121,68
1597,388	74,58
1598,342	-255,14
1599,296	-437,41
1600,251	586,57
1601,207	768,84
1602,163	-486,56
1603,119	-679,07
1604,077	725,83
1605,034	889,67
1605,993	-412,84
1606,952	21,33
1607,911	324,43
1608,872	373,58
1609,832	-619,68
1610,794	-789,66
1611,756	684,87
1612,718	441,17
1613,681	-269,48
1614,645	-578,72
1615,609	832,33
1616,574	283,47
1617,54	-154,79
1618,506	-586,91
1619,472	744,27
1620,44	738,12
1621,408	-138,41
1622,376	-468,13
1623,345	332,62
1624,315	709,45
1625,285	-572,58
1626,256	-423,08
1627,227	461,65
1628,199	-122,02
1629,172	-498,85
1630,145	-273,57
1631,119	439,12
1632,094	992,07
1633,069	-478,37
1634,044	-347,3
1635,02	201,55
1635,997	686,92
1636,975	-519,33
1637,953	-691,36
1638,931	881,48
1639,911	84,82
1640,89	-689,31
1641,871	-529,57
1642,852	582,48
1643,833	480,08
1644,816	-705,7
1645,798	-869,53
1646,782	1028,93
1647,766	185,17
1648,75	-701,6
1649,736	-617,63
1650,721	72,53
1651,708	363,34
1652,695	-683,17
1653,682	-470,18
1654,671	330,58
1655,66	617,29
1656,649	-566,43
1657,639	-668,83
1658,63	-91,31
1659,621	187,22
1660,613	-877,73
1661,605	-804
1662,598	254,8
1663,592	156,5
1664,586	-902,3
1665,581	-752,8
1666,576	164,69
1667,572	303,95
1668,569	-634,02
1669,566	-674,98
1670,564	461,65
1671,563	734,03
1672,562	-685,22
1673,562	-267,43
1674,562	486,22
1675,563	488,27
1676,564	-375,97
1677,566	-597,15
1678,569	963,4
1679,572	-292,01
1680,576	-472,23
1681,581	-623,78
1682,586	150,36
1683,592	635,72
1684,598	-543,91
1685,605	-410,79
1686,613	607,05
1687,621	312,14
1688,63	-484,52
1689,639	-412,84
1690,649	217,94
1691,66	299,86
1692,671	-441,51
1693,683	-695,46
1694,696	-58,54
1695,709	283,47
1696,722	-636,06
1697,737	-513,19
1698,752	54,1
1699,767	504,65
1700,783	-494,76
1701,8	-400,55
1702,818	420,69
1703,836	-52,39
1704,854	-738,46
1705,873	-593,06
1706,893	275,28
1707,914	394,06
1708,935	-605,35
1709,956	-607,39
1710,979	219,99
1712,002	203,6
1713,025	-623,78
1714,049	-421,03
1715,074	471,89
1716,099	619,34
1717,125	-664,74
1718,152	-715,94
1719,179	103,25
1720,207	596,81
1721,235	-76,97
1722,265	-255,14
1723,294	250,71
1724,325	195,41
1725,355	-402,6
1726,387	-484,52
1727,419	291,66
1728,452	521,04
1729,485	-416,93
1730,519	-631,97
1731,554	60,24
1732,589	373,58
1733,625	-683,17
1734,662	-560,29
1735,699	-85,16
1736,736	678,73
1737,775	-656,54
1738,814	-662,69
1739,853	127,83
1740,894	291,66
1741,934	-406,69
1742,976	-691,36
1744,018	465,74
1745,061	324,43
1746,104	-685,22
1747,148	-625,83
1748,193	400,21
1749,238	277,33
1750,284	-470,18
1751,33	-724,13
1752,377	541,52
1753,425	996,17
1754,473	-474,28
1755,522	-548
1756,572	817,99
1757,622	488,27
1758,673	-744,61
1759,724	-492,71
1760,776	709,45
1761,829	836,42
1762,882	-314,53
1763,936	-662,69
1764,991	95,06
1766,046	1006,41
1767,102	-357,54
1768,158	-674,98
1769,215	504,65
1770,273	361,3
1771,331	-451,75
1772,39	-773,28
1773,45	365,39
1774,51	336,72
1775,571	-787,61
1776,632	-148,65
1777,694	236,37
1778,757	435,02
1779,82	-320,68
1780,884	-515,23
1781,949	168,79
1783,014	449,36
1784,08	-834,72
1785,147	-576,67
1786,214	189,27
1787,282	78,68
1788,35	-461,99
1789,419	-328,87
1790,489	736,07
1791,559	441,17
1792,63	-597,15
1793,702	-337,06
1794,774	164,69
1795,847	547,66
1796,92	-347,3
1797,994	-502,95
1799,069	490,32
1800,144	1073,99
1801,22	-576,67
1802,297	-343,21
1803,374	-27,82
1804,452	471,89
1805,531	-629,92
1806,61	-353,45
1807,69	471,89
1808,77	-175,27
1809,851	-470,18
1810,933	-806,05
1812,015	719,69
1813,098	-9,39
1814,182	-576,67
1815,266	-445,6
1816,351	281,43
1817,437	394,06
1818,523	-441,51
1819,61	-519,33
1820,697	344,91
1821,785	1217,35
1822,874	-451,75
1823,963	-629,92
1825,053	80,72
1826,144	461,65
1827,235	-568,48
1828,327	-574,63
1829,42	365,39
1830,513	-52,39
1831,607	-644,26
1832,701	-597,15
1833,796	260,95
1834,892	760,65
1835,989	-773,28
1837,086	-703,65
1838,183	408,4
1839,282	246,61
1840,381	-539,81
1841,48	-568,48
1842,581	449,36
1843,682	815,94
1844,783	-285,86
1845,885	-427,17
1846,988	670,54
1848,092	545,61
1849,196	-443,56
1850,301	-355,49
1851,406	54,1
1852,512	996,17
1853,619	-593,06
1854,726	-662,69
1855,834	13,14
1856,943	654,16
1858,052	-591,01
1859,162	-482,47
1860,273	346,96
1861,384	803,66
1862,496	-558,24
1863,608	-619,68
1864,721	414,54
1865,835	164,69
1866,95	-654,5
1868,065	-582,82
1869,181	230,23
1870,297	619,34
1871,414	-351,4
1872,532	-765,09
1873,65	222,03
1874,769	148,31
1875,889	-664,74
1877,009	-154,79
1878,13	512,85
1879,252	762,7
1880,374	-394,4
1881,497	-564,39
1882,62	326,48
1883,745	162,64
1884,87	-695,46
1885,995	-758,94
1887,121	226,13
1888,248	19,29
1889,376	-701,6
1890,504	-613,54
1891,632	406,35
1892,762	123,73
1893,892	-707,74
1895,023	-416,93
1896,154	86,87
1897,286	310,1
1898,419	-683,17
1899,552	-591,01
1900,686	539,47
1901,821	541,52
1902,956	-507,04
1904,092	-519,33
1905,229	801,61
1906,366	426,83
1907,504	-634,02
1908,643	-691,36
1909,782	545,61
