Data from led_USB4H112691__4__11-27-47-545.txt Node

Date: Tue Dec 17 11:27:47 CET 2024
User: Etudiants TP
Spectrometer: USB4H11269
Trigger mode: 4
Integration Time (sec): 1,000000E0
Scans to average: 1
Electric dark correction enabled: true
Nonlinearity correction enabled: false
Boxcar width: 0
XAxis mode: Wavelengths
Number of Pixels in Spectrum: 3648
>>>>>Begin Spectral Data<<<<<
286,377	-1610,73
286,631	-1610,73
286,884	-1610,73
287,138	-1565,67
287,391	-1569,77
287,644	-852,98
287,896	-578,55
288,149	662,52
288,401	431,1
288,653	-566,26
288,905	-394,23
289,157	879,6
289,409	236,54
289,661	-388,09
289,912	-734,2
290,163	494,58
290,414	809,97
290,665	-619,51
290,916	-568,31
291,166	529,4
291,417	1149,93
291,667	-611,32
291,917	-205,82
292,167	453,63
292,417	355,32
292,666	-816,12
292,916	-656,37
293,165	451,58
293,414	617,46
293,663	-914,42
293,912	-781,3
294,16	744,44
294,408	631,8
294,657	-713,72
294,905	-459,77
295,153	543,74
295,4	551,93
295,648	-814,07
295,895	-715,77
296,143	44,03
296,39	785,4
296,637	-574,46
296,884	-685,05
297,13	578,55
297,377	838,64
297,623	-551,93
297,869	-318,46
298,115	756,72
298,361	683
298,606	-676,85
298,852	-537,59
299,097	603,13
299,342	855,03
299,587	-379,9
299,832	-480,25
300,077	678,9
300,322	637,94
300,566	-683
300,81	-427
301,054	584,7
301,298	877,55
301,542	-277,5
301,785	-357,37
302,029	822,26
302,272	695,29
302,515	-746,48
302,758	-472,06
303,001	801,78
303,244	728,05
303,486	-543,74
303,729	-934,9
303,971	920,56
304,213	723,96
304,455	-824,31
304,696	-328,7
304,938	273,4
305,179	723,96
305,421	-414,71
305,662	-488,44
305,903	347,13
306,143	199,68
306,384	-402,43
306,625	-517,11
306,865	373,75
307,105	181,25
307,345	-467,96
307,585	-533,5
307,825	52,22
308,064	769,01
308,304	-611,32
308,543	-719,86
308,782	574,46
309,021	752,63
309,26	-283,64
309,499	-590,84
309,737	850,93
309,976	617,46
310,214	-732,15
310,452	-605,17
310,69	1125,36
310,928	173,05
311,165	-639,99
311,403	-513,02
311,64	766,96
311,878	553,98
312,115	-562,17
312,351	-482,3
312,588	412,67
312,825	893,94
313,061	-713,72
313,298	17,41
313,534	103,42
313,77	799,73
314,006	-586,74
314,241	-683
314,477	805,88
314,713	1059,82
314,948	-502,78
315,183	211,96
315,418	855,03
315,653	513,02
315,888	-660,47
316,122	-373,75
316,357	246,78
316,591	869,36
316,825	-480,25
317,059	-570,36
317,293	928,75
317,527	470,01
317,76	-635,89
317,994	-484,34
318,227	691,19
318,46	1053,68
318,693	-678,9
318,926	-394,23
319,159	44,03
319,391	529,4
319,624	-756,72
319,856	-535,54
320,088	758,77
320,321	603,13
320,552	-275,45
320,784	-570,36
321,016	887,79
321,247	-17,41
321,479	-353,27
321,71	-414,71
321,941	-168,96
322,172	1143,79
322,403	-738,29
322,633	-422,91
322,864	830,45
323,094	211,96
323,325	-97,28
323,555	-662,52
323,785	185,34
324,014	261,12
324,244	-439,29
324,474	-357,37
324,703	793,59
324,933	816,12
325,162	-431,1
325,391	-818,16
325,62	-52,22
325,848	748,53
326,077	-543,74
326,306	-318,46
326,534	744,44
326,762	941,04
326,99	-566,26
327,218	-226,3
327,446	748,53
327,674	54,27
327,901	-576,5
328,129	-537,59
328,356	787,44
328,583	187,39
328,81	-603,13
329,037	-459,77
329,264	400,38
329,491	881,65
329,717	-455,67
329,944	-666,61
330,17	330,75
330,396	179,2
330,622	-683
330,848	-234,49
331,074	527,35
331,299	1373,16
331,525	-644,09
331,75	-517,11
331,975	857,07
332,201	191,49
332,426	-797,68
332,65	-633,85
332,875	-168,96
333,1	363,51
333,324	-674,81
333,549	-627,7
333,773	314,36
333,997	447,48
334,221	-607,22
334,445	-566,26
334,668	521,21
334,892	1031,15
335,116	-332,79
335,339	-584,7
335,562	-1,02
335,785	394,23
336,008	-324,6
336,231	-662,52
336,454	-164,86
336,676	984,05
336,899	-525,3
337,121	-318,46
337,343	80,89
337,566	504,82
337,788	-603,13
338,009	-648,18
338,231	17,41
338,453	365,56
338,674	3175,38
338,896	-416,76
339,117	-62,46
339,338	1090,54
339,559	-742,39
339,78	-562,17
340,001	23,55
340,222	945,14
340,442	-504,82
340,663	-242,68
340,883	748,53
341,103	347,13
341,323	-549,88
341,543	-484,34
341,763	777,2
341,983	261,12
342,202	-705,53
342,422	-586,74
342,641	1080,3
342,861	326,65
343,08	-185,34
343,299	-721,91
343,518	564,22
343,736	662,52
343,955	-537,59
344,174	-625,65
344,392	744,44
344,61	103,42
344,829	-689,14
345,047	-467,96
345,265	543,74
345,483	873,46
345,7	-560,12
345,918	-142,33
346,136	37,89
346,353	889,84
346,57	-721,91
346,788	-611,32
347,005	424,95
347,222	-27,65
347,438	-99,33
347,655	-568,31
347,872	93,18
348,088	1006,58
348,305	-381,95
348,521	-662,52
348,737	-1,02
348,953	928,75
349,169	-209,92
349,385	-437,24
349,601	375,8
349,817	-60,42
350,032	-199,68
350,248	-252,92
350,463	1149,93
350,678	-271,36
350,893	-570,36
351,108	-707,57
351,323	193,53
351,538	709,62
351,753	-635,89
351,967	-570,36
352,182	769,01
352,396	199,68
352,61	-635,89
352,824	-558,07
353,038	627,7
353,252	834,55
353,466	-455,67
353,68	-553,98
353,894	308,22
354,107	101,37
354,32	-347,13
354,534	-621,56
354,747	609,27
354,96	-105,47
355,173	-406,52
355,386	-791,54
355,599	424,95
355,811	168,96
356,024	-685,05
356,236	-398,33
356,449	158,72
356,661	357,37
356,873	-715,77
357,085	-881,65
357,297	728,05
357,509	562,17
357,721	-625,65
357,933	-496,63
358,144	287,74
358,356	220,16
358,567	-373,75
358,778	-717,81
358,989	785,4
359,2	162,81
359,411	-519,16
359,622	-353,27
359,833	519,16
360,044	244,73
360,254	-615,41
360,465	-672,76
360,675	449,53
360,885	355,32
361,096	-703,48
361,306	-496,63
361,516	199,68
361,726	396,28
361,935	-824,31
362,145	-545,78
362,355	404,47
362,564	396,28
362,774	-775,16
362,983	-820,21
363,192	695,29
363,401	166,91
363,61	-633,85
363,819	-312,32
364,028	437,24
364,237	846,84
364,445	-553,98
364,654	-439,29
364,862	304,12
365,071	82,94
365,279	-441,34
365,487	-494,58
365,695	529,4
365,903	283,64
366,111	-611,32
366,319	-570,36
366,527	596,98
366,734	250,88
366,942	-336,89
367,149	-635,89
367,357	-474,1
367,564	986,1
367,771	-525,3
367,978	-658,42
368,185	48,13
368,392	265,21
368,599	-271,36
368,806	-529,4
369,013	-89,09
369,219	406,52
369,426	-793,59
369,632	-209,92
369,838	1162,22
370,044	463,86
370,251	-590,84
370,457	-533,5
370,663	855,03
370,868	439,29
371,074	-494,58
371,28	-676,85
371,485	-218,11
371,691	564,22
371,896	-619,51
372,102	-717,81
372,307	1059,82
372,512	846,84
372,717	-668,66
372,922	-222,2
373,127	46,08
373,332	332,79
373,537	-390,14
373,741	-545,78
373,946	474,1
374,151	187,39
374,355	-754,68
374,559	-386,04
374,764	183,29
374,968	-422,91
375,172	-560,12
375,376	-220,16
375,58	439,29
375,784	130,05
375,987	-709,62
376,191	-521,21
376,395	130,05
376,598	154,62
376,802	-666,61
377,005	-254,97
377,208	89,09
377,412	5,12
377,615	-758,77
377,818	-576,5
378,021	238,59
378,224	-37,89
378,426	-570,36
378,629	-828,4
378,832	695,29
379,034	439,29
379,237	-900,08
379,439	-910,32
379,642	658,42
379,844	408,57
380,046	-855,03
380,248	-676,85
380,45	-128
380,652	-236,54
380,854	-488,44
381,056	-660,47
381,258	224,25
381,459	371,71
381,661	-701,43
381,862	-338,94
382,064	-9,22
382,265	199,68
382,467	-726
382,668	-443,39
382,869	715,77
383,07	259,07
383,271	-437,24
383,472	-549,88
383,673	629,75
383,874	289,79
384,074	-447,48
384,275	-695,29
384,476	490,49
384,676	1106,93
384,876	-807,92
385,077	-508,92
385,277	750,58
385,477	840,69
385,677	-701,43
385,878	-515,06
386,078	308,22
386,278	250,88
386,477	-261,12
386,677	-291,84
386,877	453,63
387,077	658,42
387,276	-381,95
387,476	-545,78
387,675	302,08
387,875	885,75
388,074	-773,11
388,273	-570,36
388,472	812,02
388,671	-132,09
388,87	-723,96
389,069	-183,29
389,268	-160,77
389,467	60,42
389,666	-814,07
389,865	-214,01
390,063	478,2
390,262	646,13
390,461	-717,81
390,659	-713,72
390,857	726
391,056	646,13
391,254	-607,22
391,452	-537,59
391,65	779,25
391,849	525,3
392,047	-427
392,245	-248,83
392,442	330,75
392,64	553,98
392,838	-259,07
393,036	-474,1
393,233	293,88
393,431	222,2
393,629	-783,35
393,826	-521,21
394,023	232,44
394,221	-218,11
394,418	-476,15
394,615	-252,92
394,812	-144,38
395,01	818,16
395,207	-535,54
395,404	-754,68
395,601	885,75
395,797	402,43
395,994	-627,7
396,191	-504,82
396,388	257,02
396,584	719,86
396,781	-242,68
396,977	-21,5
397,174	568,31
397,37	-99,33
397,567	-427
397,763	-566,26
397,959	326,65
398,155	257,02
398,352	-537,59
398,548	-265,21
398,744	420,86
398,94	373,75
399,136	-750,58
399,331	-300,03
399,527	281,6
399,723	531,45
399,919	-267,26
400,114	-443,39
400,31	93,18
400,505	472,06
400,701	-513,02
400,896	-525,3
401,092	166,91
401,287	330,75
401,482	-644,09
401,678	-390,14
401,873	515,06
402,068	644,09
402,263	-340,99
402,458	-488,44
402,653	144,38
402,848	519,16
403,043	-439,29
403,237	-586,74
403,432	119,81
403,627	-289,79
403,822	-734,2
404,016	-459,77
404,211	101,37
404,405	709,62
404,6	-293,88
404,794	-195,58
404,989	484,34
405,183	154,62
405,377	-228,35
405,571	-111,61
405,766	480,25
405,96	234,49
406,154	-529,4
406,348	-531,45
406,542	480,25
406,736	465,91
406,93	-658,42
407,124	-437,24
407,318	269,31
407,511	347,13
407,705	-234,49
407,899	-443,39
408,092	457,72
408,286	359,42
408,48	-560,12
408,673	-492,54
408,867	3,07
409,06	316,41
409,253	-275,45
409,447	-461,82
409,64	650,23
409,833	494,58
410,026	-259,07
410,22	-398,33
410,413	658,42
410,606	431,1
410,799	-666,61
410,992	-508,92
411,185	277,5
411,378	957,43
411,571	-543,74
411,764	-349,18
411,956	578,55
412,149	519,16
412,342	-209,92
412,534	-367,61
412,727	596,98
412,92	332,79
413,112	-416,76
413,305	-117,76
413,497	785,4
413,69	693,24
413,882	-340,99
414,075	-142,33
414,267	502,78
414,459	271,36
414,652	-529,4
414,844	-431,1
415,036	412,67
415,228	812,02
415,42	-152,57
415,612	-467,96
415,804	941,04
415,997	525,3
416,188	-216,06
416,38	-273,4
416,572	134,14
416,764	711,67
416,956	-422,91
417,148	-453,63
417,34	379,9
417,531	-58,37
417,723	-427
417,915	-338,94
418,107	230,4
418,298	619,51
418,49	-332,79
418,681	-201,72
418,873	814,07
419,064	539,64
419,256	-257,02
419,447	-377,85
419,639	627,7
419,83	908,27
420,021	-232,44
420,213	-449,53
420,404	404,47
420,595	480,25
420,786	-238,59
420,978	-171,01
421,169	734,2
421,36	347,13
421,551	-332,79
421,742	-496,63
421,933	994,29
422,124	683
422,315	-310,27
422,506	-310,27
422,697	723,96
422,888	365,56
423,079	19,46
423,27	-289,79
423,461	371,71
423,652	254,97
423,842	-388,09
424,033	-248,83
424,224	654,33
424,415	1108,98
424,605	-177,15
424,796	-177,15
424,987	695,29
425,177	625,65
425,368	-480,25
425,558	-371,71
425,749	437,24
425,939	320,51
426,13	50,18
426,32	-1,02
426,511	314,36
426,701	289,79
426,892	-222,2
427,082	-226,3
427,272	351,23
427,463	674,81
427,653	-62,46
427,843	-56,32
428,034	1088,5
428,224	754,68
428,414	-324,6
428,604	-117,76
428,795	756,72
428,985	779,25
429,175	103,42
429,365	142,33
429,555	687,09
429,745	584,7
429,935	-136,19
430,126	21,5
430,316	857,07
430,506	945,14
430,696	-99,33
430,886	105,47
431,076	781,3
431,266	570,36
431,456	123,9
431,645	-136,19
431,835	562,17
432,025	812,02
432,215	-179,2
432,405	150,53
432,595	658,42
432,785	654,33
432,975	-68,61
433,164	-302,08
433,354	551,93
433,544	877,55
433,734	-203,77
433,923	146,43
434,113	668,66
434,303	732,15
434,493	175,1
434,682	48,13
434,872	1010,67
435,062	383,99
435,251	117,76
435,441	-62,46
435,631	1151,98
435,82	715,77
436,01	-37,89
436,2	152,57
436,389	715,77
436,579	1350,64
436,768	510,97
436,958	404,47
437,147	920,56
437,337	1068,02
437,527	392,19
437,716	158,72
437,906	1385,45
438,095	859,12
438,285	168,96
438,474	414,71
438,664	1436,65
438,853	1211,37
439,043	549,88
439,232	248,83
439,422	1199,09
439,611	1209,33
439,8	250,88
439,99	635,89
440,179	1360,88
440,369	1676,26
440,558	297,98
440,748	447,48
440,937	1117,17
441,126	889,84
441,316	676,85
441,505	494,58
441,695	1534,95
441,884	2085,86
442,073	601,08
442,263	527,35
442,452	1379,31
442,642	1514,47
442,831	732,15
443,02	977,91
443,21	1969,12
443,399	2272,22
443,588	883,7
443,778	848,88
443,967	2165,73
444,156	1739,75
444,346	701,43
444,535	783,35
444,725	2272,22
444,914	1643,49
445,103	764,92
445,293	1039,34
445,482	2255,84
445,671	1833,96
445,861	1031,15
446,05	1389,55
446,239	2034,66
446,429	1602,54
446,618	930,8
446,807	1389,55
446,997	2196,45
447,186	2104,29
447,376	1244,14
447,565	1266,67
447,754	2485,21
447,944	2411,48
448,133	1231,85
448,322	1088,5
448,512	1936,35
448,701	2593,75
448,891	1274,86
449,08	1407,98
449,269	1530,86
449,459	1774,56
449,648	1233,9
449,838	1174,51
450,027	1829,86
450,217	1747,94
450,406	1229,81
450,595	1477,61
450,785	2218,97
450,974	2218,97
451,164	1141,74
451,353	1332,2
451,543	2167,77
451,732	2460,63
451,922	1143,79
452,111	1362,92
452,301	1625,06
452,49	1393,64
452,68	1127,41
452,869	1629,16
453,059	1678,31
453,249	2378,72
453,438	900,08
453,628	1276,91
453,817	2094,05
454,007	2020,32
454,197	994,29
454,386	1301,48
454,576	2503,64
454,765	2124,77
454,955	1350,64
455,145	1068,02
455,334	1876,96
455,524	1528,81
455,714	1448,94
455,904	1039,34
456,093	2681,82
456,283	2046,94
456,473	1092,59
456,663	904,18
456,852	1891,3
457,042	2053,09
457,232	1184,75
457,422	1717,22
457,612	2034,66
457,802	2415,58
457,991	852,98
458,181	1108,98
458,371	2255,84
458,561	2110,43
458,751	1129,45
458,941	1045,49
459,131	1799,14
459,321	1764,33
459,511	1289,2
459,701	1299,44
459,891	2108,38
460,081	1606,63
460,271	1238
460,461	977,91
460,651	2806,74
460,841	2534,36
461,032	1149,93
461,222	1108,98
461,412	1852,39
461,602	2763,73
461,792	969,71
461,983	918,51
462,173	2104,29
462,363	2669,53
462,554	1223,66
462,744	1151,98
462,934	2247,65
463,125	2153,44
463,315	1002,48
463,505	1250,28
463,696	2194,4
463,886	1833,96
464,077	1145,84
464,267	1227,76
464,458	2534,36
464,648	1682,41
464,839	1393,64
465,03	1276,91
465,22	1780,71
465,411	2200,54
465,601	1358,83
465,792	1182,7
465,983	1891,3
466,174	2282,46
466,364	949,23
466,555	1231,85
466,746	2348
466,937	2042,85
467,128	1334,25
467,319	1252,33
467,51	2419,68
467,701	3001,3
467,891	1364,97
468,082	1219,57
468,274	2182,11
468,465	1610,73
468,656	1506,28
468,847	1186,8
469,038	1895,4
469,229	2118,62
469,42	1520,62
469,612	1350,64
469,803	2585,56
469,994	2458,59
470,185	1569,77
470,377	1375,21
470,568	2329,56
470,76	2304,99
470,951	1403,88
471,142	1674,21
471,334	2601,94
471,526	2440,15
471,717	1911,78
471,909	1315,82
472,1	2288,61
472,292	2468,83
472,484	1412,07
472,675	1444,84
472,867	2477,02
473,059	2989,01
473,251	1698,79
473,443	1600,49
473,635	2657,24
473,826	2771,93
474,018	1592,3
474,21	1856,48
474,402	2690,01
474,595	3060,69
474,787	1772,52
474,979	2079,71
475,171	2452,44
475,363	2218,97
475,555	1653,73
475,748	1813,48
475,94	2943,96
476,132	2673,62
476,325	1928,16
476,517	2280,41
476,71	3644,36
476,902	2649,05
477,095	1993,7
477,287	2452,44
477,48	3173,33
477,673	3029,97
477,865	2264,03
478,058	2069,47
478,251	3208,14
478,444	3636,17
478,636	2462,68
478,829	2239,45
479,022	3195,86
479,215	3435,47
479,408	2546,65
479,601	2905,04
479,794	3034,07
479,988	2927,57
480,181	2616,28
480,374	2517,98
480,567	3453,9
480,76	3980,23
480,954	2659,29
481,147	2382,81
481,341	3249,1
481,534	3374,03
481,728	2757,59
481,921	3042,26
482,115	3918,79
482,308	4049,86
482,502	2714,58
482,696	2853,84
482,89	4422,59
483,084	3935,17
483,277	2905,04
483,471	3001,3
483,665	4133,82
483,859	5024,69
484,053	2649,05
484,247	2845,65
484,442	3777,48
484,636	3910,6
484,83	3120,08
485,024	3419,08
485,219	4131,78
485,413	3908,55
485,608	3195,86
485,802	3453,9
485,997	4389,82
486,191	4156,35
486,386	3402,7
486,58	3615,69
486,775	4541,37
486,97	4772,79
487,165	3486,67
487,36	3533,77
487,555	4596,67
487,75	4271,04
487,945	3836,87
488,14	3558,35
488,335	4447,16
488,53	4445,12
488,725	3699,66
488,92	4127,68
489,116	5241,78
489,311	4893,62
489,507	3824,58
489,702	4606,91
489,898	5356,46
490,093	4651,96
490,289	4338,62
490,485	4211,65
490,68	4600,76
490,876	5690,28
491,072	4189,12
491,268	4418,49
491,464	5577,64
491,66	5465
491,856	4537,27
492,052	5016,5
492,248	5864,36
492,445	5520,3
492,641	4572,09
492,837	4660,15
493,034	6017,96
493,23	6159,27
493,427	5329,84
493,623	5047,22
493,82	6026,15
494,017	6429,6
494,214	5120,95
494,41	4901,81
494,607	6343,58
494,804	6058,92
495,001	5272,5
495,198	5467,05
495,395	6630,3
495,593	6595,48
495,79	5510,06
495,987	5481,39
496,184	6011,81
496,382	6697,88
496,579	5606,31
496,777	5866,41
496,974	7478,16
497,172	7060,37
497,37	6058,92
497,568	6003,62
497,766	7814,02
497,963	7166,87
498,161	6351,78
498,359	6607,77
498,558	8055,69
498,756	7900,04
498,954	6355,87
499,152	6874,01
499,351	7685
499,549	7797,64
499,747	6876,06
499,946	6853,53
500,145	8090,5
500,343	8076,16
500,542	7015,32
500,741	7166,87
500,94	8270,72
501,139	8940,41
501,338	7410,57
501,537	7908,23
501,736	9253,75
501,935	8987,51
502,134	7664,52
502,334	7869,32
502,533	9284,47
502,733	9190,26
502,932	8598,4
503,132	8319,87
503,331	9290,61
503,531	9821,03
503,731	8549,25
503,931	8840,06
504,131	9319,28
504,331	10326,88
504,531	9071,48
504,731	9171,83
504,931	10066,79
505,132	10267,49
505,332	9421,68
505,532	9517,93
505,733	10720,09
505,933	11326,29
506,134	9880,43
506,335	9638,76
506,536	10503,01
506,736	11488,08
506,937	9804,65
507,138	10181,48
507,34	11891,53
507,541	11113,3
507,742	10877,79
507,943	10572,64
508,145	11541,33
508,346	10873,69
508,548	10634,08
508,749	10859,35
508,951	11381,59
509,153	11782,99
509,354	11135,83
509,556	11254,61
509,758	12634,94
509,96	12000,07
510,163	11496,27
510,365	11694,93
510,567	12151,62
510,769	12292,93
510,972	11703,12
511,174	12192,58
511,377	12262,21
511,58	14062,38
511,782	12010,31
511,985	12041,03
512,188	13527,86
512,391	13335,35
512,594	12305,22
512,797	12684,09
513,001	13761,33
513,204	14199,59
513,407	12747,58
513,611	12630,85
513,814	13857,58
514,018	14138,15
514,222	13015,87
514,425	12888,89
514,629	14158,63
514,833	13970,22
515,037	12987,19
515,241	13259,57
515,445	13810,48
515,65	13734,7
515,854	13564,72
516,059	13683,5
516,263	14508,83
516,468	14383,91
516,672	13470,51
516,877	13626,16
517,082	14183,21
517,287	14564,13
517,492	13839,15
517,697	13988,65
517,902	14506,79
518,107	14531,36
518,313	13998,89
518,518	13837,1
518,724	15563,54
518,929	14881,56
519,135	14236,45
519,341	13839,15
519,547	15125,27
519,753	14906,14
519,959	13894,44
520,165	13957,93
520,371	15119,13
520,577	15897,36
520,784	13959,98
520,99	14496,55
521,197	15338,26
521,404	15170,33
521,61	14064,43
521,817	14132,01
522,024	15772,43
522,231	14920,48
522,438	13794,09
522,645	14596,9
522,853	15072,03
523,06	15391,51
523,268	14523,17
523,475	14596,9
523,683	15311,64
523,891	15754
524,098	14453,54
524,306	14498,59
524,514	15194,9
524,722	15178,52
524,931	14357,28
525,139	14273,32
525,347	14764,83
525,556	15307,54
525,764	14693,15
525,973	14385,96
526,182	15444,76
526,391	15102,75
526,6	14510,88
526,809	14476,07
527,018	15012,63
527,227	15436,56
527,436	14453,54
527,646	14486,31
527,855	15485,72
528,065	15393,56
528,275	14314,28
528,484	13972,27
528,694	15514,39
528,904	15088,41
529,114	14039,85
529,325	14457,64
529,535	14711,58
529,745	15411,99
529,956	14095,14
530,166	13902,64
530,377	15250,2
530,588	15717,14
530,799	14494,5
531,01	14043,95
531,221	15307,54
531,432	15389,46
531,643	14232,36
531,855	14132,01
532,066	15471,38
532,278	15131,42
532,489	14170,92
532,701	14037,8
532,913	15199
533,125	14818,08
533,337	13669,17
533,549	14089
533,762	14781,21
533,974	14267,17
534,186	13464,37
534,399	13865,77
534,612	14910,24
534,825	14545,7
535,037	13867,82
535,25	13988,65
535,464	14078,76
535,677	14940,96
535,89	13355,83
536,104	13790
536,317	14359,33
536,531	14187,3
536,744	13835,05
536,958	13380,4
537,172	14187,3
537,386	14117,67
537,6	13339,44
537,815	13433,65
538,029	14351,14
538,244	14445,35
538,458	13130,55
538,673	13204,28
538,888	14404,39
539,103	14557,99
539,318	13441,84
539,533	12946,23
539,748	13986,6
539,963	13607,73
540,179	12569,41
540,394	12763,97
540,61	13355,83
540,826	13742,89
541,042	12804,92
541,258	12729,15
541,474	14064,43
541,69	13726,51
541,906	12882,75
542,123	12493,63
542,339	13597,49
542,556	13191,99
542,773	12686,14
542,99	12628,8
543,207	13507,38
543,424	13101,88
543,641	12815,16
543,858	12790,59
544,076	13136,7
544,293	12935,99
544,511	12221,25
544,729	12346,18
544,947	12954,43
545,165	12966,71
545,383	12079,94
545,601	12168,01
545,819	13388,6
546,038	12761,92
546,256	12352,32
546,475	12032,84
546,694	13683,5
546,913	13085,5
547,132	12346,18
547,351	12069,7
547,57	12438,34
547,79	12348,23
548,009	11715,41
548,229	11762,51
548,449	12327,75
548,668	12929,85
548,888	11907,91
549,109	11770,7
549,329	12714,81
549,549	12579,65
549,77	11717,45
549,99	11928,39
550,211	12612,42
550,432	12987,19
550,653	11209,56
550,874	11350,87
551,095	13198,13
551,316	12176,2
551,538	11230,04
551,759	11361,11
551,981	12426,05
552,203	12413,76
552,424	11180,89
552,646	11555,66
552,869	12106,57
553,091	12077,9
553,313	11205,46
553,536	11021,14
553,758	12297,03
553,981	11617,1
554,204	10914,65
554,427	11436,88
554,65	12151,62
554,873	11254,61
555,097	10525,54
555,32	10662,75
555,544	12180,29
555,768	11746,12
555,992	10595,17
556,216	10562,4
556,44	11277,14
556,664	11828,04
556,888	10830,68
557,113	10218,34
557,337	11963,21
557,562	12061,51
557,787	10220,39
558,012	10376,03
558,237	11242,32
558,462	11275,09
558,688	10564,45
558,913	10529,63
559,139	10877,79
559,365	11412,31
559,591	9907,05
559,817	10353,51
560,043	11361,11
560,269	11520,85
560,496	10351,46
560,722	9997,16
560,949	11498,32
561,176	10464,1
561,403	9956,2
561,63	10298,21
561,857	10146,66
562,084	10541,92
562,312	9806,7
562,539	9769,83
562,767	11162,45
562,995	10390,37
563,223	9759,6
563,451	9708,4
563,679	10259,3
563,908	10513,25
564,136	9759,6
564,365	9845,61
564,594	9778,03
564,823	11250,52
565,052	9683,82
565,281	9077,62
565,51	10195,81
565,74	10163,04
565,969	9100,15
566,199	9476,98
566,429	10343,27
566,659	10197,86
566,889	9108,34
567,119	9214,84
567,35	10259,3
567,58	10345,31
567,811	9153,4
568,042	8852,34
568,273	9634,67
568,504	10060,65
568,735	9038,71
568,966	9173,88
569,198	9653,1
569,43	10197,86
569,661	8823,67
569,893	9053,05
570,125	10187,62
570,358	9941,86
570,59	8661,88
570,822	8590,2
571,055	9704,3
571,288	9630,57
571,521	8465,28
571,754	8629,12
571,987	9835,37
572,22	9313,14
572,454	8412,03
572,687	8594,3
572,921	8686,46
573,155	9048,95
573,389	8751,99
573,623	8565,63
573,858	8850,3
574,092	9220,98
574,327	8266,63
574,561	8520,57
574,796	8846,2
575,031	9190,26
575,266	8022,92
575,502	7908,23
575,737	9036,66
575,973	8608,64
576,209	7762,83
576,445	7902,09
576,681	8465,28
576,917	8696,7
577,153	7920,52
577,39	7713,67
577,626	8448,9
577,863	8266,63
578,1	7252,88
578,337	7869,32
578,574	8141,7
578,812	8682,36
579,049	7601,04
579,287	7273,36
579,525	8391,55
579,763	8332,16
580,001	7068,56
580,239	7230,35
580,478	8588,16
580,716	8090,5
580,955	7179,15
581,194	7068,56
581,433	8328,06
581,672	7920,52
581,911	6992,79
582,151	6812,57
582,39	7408,53
582,63	8174,47
582,87	6618,01
583,11	6744,99
583,35	7107,48
583,591	7666,57
583,831	6943,64
584,072	6984,6
584,313	7678,86
584,554	7052,18
584,795	6636,44
585,036	6667,16
585,277	8106,88
585,519	7594,89
585,761	6192,03
586,003	6343,58
586,245	7330,7
586,487	7617,42
586,729	6527,9
586,972	6200,23
587,215	8084,36
587,457	6808,47
587,7	6433,69
587,944	6306,72
588,187	6859,67
588,43	6765,46
588,674	5993,38
588,918	5931,94
589,162	7244,69
589,406	6591,39
589,65	5884,84
589,894	6818,71
590,139	6810,52
590,384	7019,41
590,629	5583,79
590,874	5651,37
591,119	6114,21
591,364	6615,96
591,61	5606,31
591,855	5491,63
592,101	7177,11
592,347	6534,04
592,593	5491,63
592,84	5761,96
593,086	6988,69
593,333	6001,57
593,58	5321,65
593,827	5278,64
594,074	6196,13
594,321	5962,66
594,568	5100,47
594,816	5047,22
595,064	5958,57
595,312	6003,62
595,56	4959,16
595,808	5403,57
596,057	6181,79
596,305	5770,15
596,554	4602,81
596,803	4907,96
597,052	5997,48
597,301	6423,45
597,551	4664,25
597,8	5106,61
598,05	5864,36
598,3	5696,43
598,55	4623,29
598,8	4791,22
599,051	5237,68
599,301	5338,03
599,552	4350,91
599,803	4803,51
600,054	5794,73
600,305	5581,74
600,556	4821,94
600,808	4651,96
601,06	5286,83
601,312	5594,03
601,564	4451,26
601,816	4166,59
602,068	5759,91
602,321	5589,93
602,574	4426,68
602,827	4152,26
603,08	5198,77
603,333	5348,27
603,587	4232,13
603,84	4355,01
604,094	5299,12
604,348	4953,01
604,602	3949,51
604,856	4162,5
605,111	5223,34
605,365	5225,39
605,62	4201,41
605,875	3900,36
606,13	5143,47
606,386	4975,54
606,641	3886,02
606,897	4025,28
607,153	4633,53
607,409	5350,32
607,665	3830,73
607,921	3763,14
608,178	4611
608,435	5026,74
608,692	3914,69
608,949	3916,74
609,206	5143,47
609,463	4993,97
609,721	3765,19
609,979	3986,37
610,237	4699,06
610,495	5057,46
610,753	4019,14
611,012	3947,46
611,27	4996,02
611,529	4848,57
611,788	3804,1
612,047	3419,08
612,307	4160,45
612,566	4967,35
612,826	3521,48
613,086	3640,26
613,346	3855,3
613,606	4570,04
613,867	3668,94
614,127	3812,29
614,388	4172,74
614,649	4684,73
614,91	3490,76
615,172	3826,63
615,433	3951,56
615,695	4287,42
615,957	3701,7
616,219	3607,5
616,481	4654,01
616,743	4189,12
617,006	3097,55
617,269	3345,36
617,532	4502,46
617,795	4527,03
618,058	3398,6
618,322	3388,36
618,586	4297,66
618,849	3912,64
619,114	3460,04
619,378	3003,35
619,642	4400,06
619,907	4475,84
620,172	3109,84
620,437	3339,21
620,702	4404,16
620,967	3797,96
621,233	3044,31
621,499	3122,13
621,765	3996,61
622,031	4320,19
622,297	2903
622,564	3134,42
622,83	3728,33
623,097	4590,52
623,364	3070,93
623,631	3328,97
623,899	4115,39
624,166	4107,2
624,434	3085,26
624,702	2735,06
624,97	4320,19
625,239	3683,27
625,507	2825,17
625,776	3079,12
626,045	3527,63
626,314	3883,97
626,584	2915,28
626,853	2759,64
627,123	3640,26
627,393	3077,07
627,663	2788,31
627,933	2839,51
628,204	4033,47
628,474	3845,06
628,745	2659,29
629,016	2935,76
629,287	3582,92
629,559	3474,38
629,83	2702,29
630,102	2673,62
630,374	3458
630,646	4068,29
630,919	2722,77
631,191	2952,15
631,464	3419,08
631,737	3025,87
632,01	2386,91
632,284	2491,35
632,557	3716,04
632,831	3847,11
633,105	2321,37
633,379	2429,91
633,654	3152,85
633,928	3640,26
634,203	2626,52
634,478	2304,99
634,753	3273,68
635,028	3406,8
635,304	2550,75
635,58	2491,35
635,856	3261,39
636,132	3103,7
636,408	2350,04
636,685	2460,63
636,961	3386,32
637,238	3236,81
637,515	2503,64
637,793	2313,18
638,07	3505,1
638,348	3017,68
638,626	2337,76
638,904	2505,69
639,182	2608,09
639,461	2528,22
639,74	2280,41
640,019	2601,94
640,298	2427,87
640,577	3083,22
640,857	2210,78
641,136	2059,23
641,416	2864,08
641,696	3507,15
641,977	2184,16
642,257	2284,51
642,538	2903
642,819	3492,81
643,1	2018,27
643,382	1852,39
643,663	3130,32
643,945	3046,35
644,227	2128,86
644,509	1952,74
644,792	3277,77
645,074	2935,76
645,357	1805,28
645,64	1831,91
645,923	2782,17
646,207	2935,76
646,49	2014,18
646,774	1682,41
647,058	2673,62
647,342	3029,97
647,627	1686,5
647,911	1672,17
648,196	3111,89
648,481	2986,96
648,767	1735,65
649,052	1907,68
649,338	2251,74
649,624	2673,62
649,91	1582,06
650,196	1592,3
650,483	2771,93
650,77	3150,8
651,057	2020,32
651,344	1788,9
651,631	2579,42
651,919	2264,03
652,207	1686,5
652,495	1797,09
652,783	2636,76
653,071	2573,27
653,36	1442,79
653,649	1481,71
653,938	2468,83
654,227	2864,08
654,517	1870,82
654,806	1422,31
655,096	2038,75
655,387	2661,34
655,677	1641,45
655,968	1463,27
656,258	1838,05
656,549	2868,18
656,841	1598,44
657,132	1608,68
657,424	2239,45
657,716	2434,01
658,008	1481,71
658,3	1274,86
658,592	2288,61
658,885	2599,9
659,178	1340,4
659,471	1076,21
659,765	1977,31
660,058	2227,17
660,352	1170,41
660,646	1336,3
660,94	2644,95
661,235	2368,48
661,53	1666,02
661,824	1041,39
662,12	2395,1
662,415	1641,45
662,711	1129,45
663,006	1444,84
663,302	1864,68
663,599	1823,72
663,895	1266,67
664,192	1340,4
664,489	2501,59
664,786	2298,84
665,083	1006,58
665,381	988,14
665,678	1907,68
665,976	2214,88
666,275	846,84
666,573	1154,03
666,872	1680,36
667,171	1879,01
667,47	924,66
667,769	895,99
668,069	2288,61
668,368	2075,62
668,668	732,15
668,969	895,99
669,269	1682,41
669,57	1403,88
669,871	965,62
670,172	1100,78
670,473	2147,3
670,775	2286,56
671,077	898,03
671,379	998,38
671,681	2118,62
671,983	1856,48
672,286	904,18
672,589	1043,44
672,892	1881,06
673,196	1960,93
673,499	738,29
673,803	887,79
674,107	1971,17
674,411	1776,61
674,716	926,71
675,021	941,04
675,326	1682,41
675,631	2208,73
675,936	560,12
676,242	887,79
676,548	1383,4
676,854	2100,19
677,16	527,35
677,467	756,72
677,774	1706,98
678,081	1510,38
678,388	979,95
678,696	848,88
679,004	1879,01
679,312	2315,23
679,62	818,16
679,928	936,95
680,237	2003,94
680,546	1117,17
680,855	863,22
681,164	689,14
681,474	1649,64
681,784	1743,85
682,094	709,62
682,404	496,63
682,715	2128,86
683,026	1115,12
683,337	586,74
683,648	965,62
683,959	1965,03
684,271	1776,61
684,583	644,09
684,895	408,57
685,208	1598,44
685,52	1776,61
685,833	773,11
686,146	519,16
686,46	1983,46
686,773	1606,63
687,087	629,75
687,401	435,19
687,716	1711,08
688,03	1739,75
688,345	398,33
688,66	666,61
688,975	1719,27
689,291	1584,1
689,607	936,95
689,923	539,64
690,239	1346,54
690,555	1760,23
690,872	504,82
691,189	308,22
691,506	1500,14
691,824	1842,15
692,142	334,84
692,459	494,58
692,778	1194,99
693,096	1807,33
693,415	844,79
693,734	566,26
694,053	1389,55
694,372	963,57
694,692	334,84
695,012	670,71
695,332	1084,4
695,652	1371,12
695,973	572,41
696,294	359,42
696,615	1182,7
696,936	1731,56
697,258	107,52
697,579	402,43
697,902	1043,44
698,224	1154,03
698,546	343,03
698,869	193,53
699,192	1039,34
699,516	1590,25
699,839	281,6
700,163	359,42
700,487	928,75
700,811	1969,12
701,136	95,23
701,461	396,28
701,786	1387,5
702,111	1848,29
702,436	140,29
702,762	547,83
703,088	1450,99
703,415	2022,37
703,741	490,49
704,068	338,94
704,395	1061,87
704,722	1559,53
705,05	144,38
705,377	357,37
705,705	1272,81
706,034	1274,86
706,362	74,75
706,691	-1,02
707,02	1328,11
707,349	1354,73
707,679	306,17
708,009	162,81
708,339	1240,05
708,669	1285,1
709	250,88
709,33	70,65
709,661	1131,5
709,993	1084,4
710,324	244,73
710,656	275,45
710,988	1428,46
711,321	1577,96
711,653	-78,85
711,986	293,88
712,319	693,24
712,652	1332,2
712,986	529,4
713,32	140,29
713,654	1582,06
713,988	1504,23
714,323	183,29
714,658	285,69
714,993	977,91
715,328	1061,87
715,664	355,32
716	504,82
716,336	1534,95
716,673	865,27
717,009	449,53
717,346	322,56
717,683	1620,97
718,021	1131,5
718,359	1,02
718,697	250,88
719,035	977,91
719,373	707,57
719,712	330,75
720,051	-9,22
720,39	1371,12
720,73	1108,98
721,07	80,89
721,41	134,14
721,75	1391,59
722,091	1190,89
722,432	27,65
722,773	443,39
723,114	875,51
723,456	1106,93
723,798	150,53
724,14	166,91
724,482	920,56
724,825	1285,1
725,168	353,27
725,511	191,49
725,855	924,66
726,198	838,64
726,542	99,33
726,887	461,82
727,231	1313,77
727,576	637,94
727,921	334,84
728,266	-132,09
728,612	887,79
728,958	1186,8
729,304	35,84
729,651	529,4
729,997	775,16
730,344	926,71
730,691	15,36
731,039	365,56
731,387	1018,86
731,735	769,01
732,083	128
732,431	328,7
732,78	693,24
733,129	232,44
733,479	93,18
733,828	332,79
734,178	781,3
734,528	420,86
734,879	138,24
735,23	64,51
735,581	1041,39
735,932	936,95
736,283	68,61
736,635	-117,76
736,987	1385,45
737,34	1332,2
737,692	-52,22
738,045	-101,37
738,398	1006,58
738,752	1076,21
739,105	-191,49
739,459	314,36
739,814	1313,77
740,168	1190,89
740,523	-148,48
740,878	164,86
741,233	883,7
741,589	1178,61
741,945	-23,55
742,301	80,89
742,657	1211,37
743,014	785,4
743,371	-93,18
743,728	533,5
744,086	936,95
744,444	707,57
744,802	-205,82
745,16	-123,9
745,519	1127,41
745,878	695,29
746,237	-164,86
746,597	105,47
746,956	1285,1
747,316	850,93
747,677	-185,34
748,037	-5,12
748,398	762,87
748,759	1063,92
749,121	226,3
749,482	187,39
749,844	642,04
750,207	400,38
750,569	-461,82
750,932	177,15
751,295	1455,08
751,659	912,37
752,022	-103,42
752,386	248,83
752,751	830,45
753,115	437,24
753,48	-103,42
753,845	-11,26
754,21	891,89
754,576	625,65
754,942	-308,22
755,308	160,77
755,675	629,75
756,041	1233,9
756,409	-312,32
756,776	60,42
757,144	1281
757,511	1027,06
757,88	-84,99
758,248	-381,95
758,617	293,88
758,986	947,19
759,355	70,65
759,725	64,51
760,095	445,43
760,465	1201,13
760,836	-244,73
761,206	-119,81
761,577	1176,56
761,949	379,9
762,32	35,84
762,692	-330,75
763,065	601,08
763,437	529,4
763,81	-234,49
764,183	-37,89
764,556	1149,93
764,93	650,23
765,304	138,24
765,678	-17,41
766,053	769,01
766,428	707,57
766,803	-355,32
767,178	-177,15
767,554	101,37
767,93	551,93
768,306	-283,64
768,683	-318,46
769,06	1022,96
769,437	736,24
769,814	-414,71
770,192	-404,47
770,57	611,32
770,948	1403,88
771,327	-146,43
771,706	-273,4
772,085	799,73
772,464	1113,07
772,844	-62,46
773,224	-433,15
773,605	267,26
773,985	373,75
774,366	-128
774,748	158,72
775,129	938,99
775,511	920,56
775,893	-314,36
776,276	-82,94
776,658	1027,06
777,041	699,38
777,425	-297,98
777,808	-320,51
778,192	580,6
778,576	1031,15
778,961	-445,43
779,346	-320,51
779,731	797,68
780,116	95,23
780,502	-244,73
780,888	-160,77
781,274	529,4
781,661	330,75
782,048	-312,32
782,435	-381,95
782,823	453,63
783,21	719,86
783,598	-300,03
783,987	-136,19
784,376	932,85
784,765	314,36
785,154	-199,68
785,544	-265,21
785,933	863,22
786,324	439,29
786,714	-66,56
787,105	-396,28
787,496	699,38
787,888	314,36
788,279	-480,25
788,671	-369,66
789,064	543,74
789,456	717,81
789,849	-515,06
790,242	-459,77
790,636	363,51
791,03	695,29
791,424	-504,82
791,818	1092,59
792,213	787,44
792,608	545,78
793,004	-152,57
793,399	-676,85
793,795	496,63
794,192	386,04
794,588	-402,43
794,985	-625,65
795,382	578,55
795,78	506,87
796,178	-289,79
796,576	-435,19
796,974	1143,79
797,373	553,98
797,772	-431,1
798,172	-472,06
798,571	453,63
798,971	945,14
799,372	-312,32
799,772	-345,08
800,173	791,54
800,574	558,07
800,976	-259,07
801,378	-445,43
801,78	93,18
802,182	23,55
802,585	-230,4
802,988	-394,23
803,392	254,97
803,795	232,44
804,199	-431,1
804,604	-293,88
805,008	666,61
805,413	914,42
805,819	-295,93
806,224	-562,17
806,63	412,67
807,036	644,09
807,443	-285,69
807,85	-275,45
808,257	609,27
808,664	603,13
809,072	-78,85
809,48	-193,53
809,889	773,11
810,297	750,58
810,706	44,03
811,116	-347,13
811,526	371,71
811,936	314,36
812,346	-527,35
812,757	-435,19
813,167	383,99
813,579	285,69
813,99	-246,78
814,402	-449,53
814,814	1117,17
815,227	386,04
815,64	-582,65
816,053	-367,61
816,467	637,94
816,88	607,22
817,294	-173,05
817,709	-168,96
818,124	277,5
818,539	941,04
818,954	-254,97
819,37	-238,59
819,786	119,81
820,202	683
820,619	-726
821,036	-545,78
821,453	836,6
821,871	453,63
822,289	-525,3
822,707	-451,58
823,126	568,31
823,545	150,53
823,964	-447,48
824,384	-410,62
824,804	226,3
825,224	611,32
825,645	-168,96
826,065	-586,74
826,487	683
826,908	601,08
827,33	-340,99
827,752	-48,13
828,175	617,46
828,598	662,52
829,021	-29,7
829,444	297,98
829,868	572,41
830,292	234,49
830,717	-672,76
831,142	-459,77
831,567	144,38
831,992	369,66
832,418	89,09
832,844	-547,83
833,27	355,32
833,697	363,51
834,124	-683
834,552	-678,9
834,979	1025,01
835,408	601,08
835,836	-521,21
836,265	-332,79
836,694	234,49
837,123	592,89
837,553	-570,36
837,983	-654,33
838,413	740,34
838,844	586,74
839,275	-631,8
839,706	-263,16
840,138	1160,17
840,57	166,91
841,003	-414,71
841,435	-250,88
841,868	252,92
842,302	125,95
842,735	-334,84
843,169	-529,4
843,604	590,84
844,039	547,83
844,474	-480,25
844,909	-431,1
845,345	717,81
845,781	590,84
846,217	-461,82
846,654	-619,51
847,091	654,33
847,528	275,45
847,966	-506,87
848,404	-445,43
848,842	1096,69
849,281	-281,6
849,72	-463,86
850,16	-533,5
850,599	183,29
851,039	191,49
851,48	-240,64
851,921	-443,39
852,362	465,91
852,803	883,7
853,245	-715,77
853,687	-463,86
854,129	656,37
854,572	142,33
855,015	-623,61
855,459	-543,74
855,903	97,28
856,347	650,23
856,791	-394,23
857,236	-576,5
857,681	945,14
858,127	1190,89
858,572	-177,15
859,019	-447,48
859,465	670,71
859,912	379,9
860,359	-730,1
860,807	-578,55
861,255	232,44
861,703	644,09
862,151	-332,79
862,6	-44,03
863,05	539,64
863,499	316,41
863,949	-398,33
864,4	-611,32
864,85	973,81
865,301	691,19
865,752	-463,86
866,204	-525,3
866,656	162,81
867,109	822,26
867,561	-541,69
868,014	-177,15
868,468	654,33
868,921	668,66
869,376	-406,52
869,83	-496,63
870,285	437,24
870,74	156,67
871,195	-330,75
871,651	-371,71
872,107	986,1
872,564	201,72
873,021	-609,27
873,478	-691,19
873,936	633,85
874,394	619,51
874,852	-445,43
875,31	-322,56
875,769	457,72
876,229	955,38
876,688	-248,83
877,148	-480,25
877,609	349,18
878,069	232,44
878,531	-263,16
878,992	-549,88
879,454	383,99
879,916	459,77
880,378	-465,91
880,841	-488,44
881,304	-37,89
881,768	158,72
882,232	-601,08
882,696	-373,75
883,161	60,42
883,626	422,91
884,091	-480,25
884,557	-365,56
885,023	70,65
885,489	658,42
885,956	-713,72
886,423	-562,17
886,89	27,65
887,358	470,01
887,826	-560,12
888,295	-496,63
888,763	93,18
889,233	984,05
889,702	-474,1
890,172	-580,6
890,642	306,17
891,113	224,25
891,584	-197,63
892,055	-437,24
892,527	588,79
892,999	826,36
893,472	-510,97
893,944	-320,51
894,417	377,85
894,891	152,57
895,365	-336,89
895,839	-375,8
896,314	437,24
896,789	-297,98
897,264	-414,71
897,74	-746,48
898,216	699,38
898,692	576,5
899,169	-545,78
899,646	-517,11
900,123	474,1
900,601	982
901,079	-578,55
901,558	-379,9
902,037	748,53
902,516	396,28
902,996	-734,2
903,476	-637,94
903,956	173,05
904,437	637,94
904,918	-627,7
905,399	-668,66
905,881	599,03
906,363	576,5
906,846	-658,42
907,329	-533,5
907,812	-64,51
908,296	553,98
908,78	-601,08
909,264	-619,51
909,749	179,2
910,234	644,09
910,719	-599,03
911,205	-328,7
911,691	-121,85
912,178	492,54
912,665	-160,77
913,152	-547,83
913,64	136,19
914,128	639,99
914,616	-470,01
915,105	-535,54
915,594	433,15
916,084	957,43
916,574	-427
917,064	-644,09
917,555	-78,85
918,046	510,97
918,537	-125,95
919,029	-826,36
919,521	111,61
920,013	912,37
920,506	-410,62
920,999	-685,05
921,493	723,96
921,987	269,31
922,481	-345,08
922,976	-537,59
923,471	216,06
923,967	396,28
924,462	-416,76
924,959	-447,48
925,455	523,26
925,952	410,62
926,449	-652,28
926,947	-494,58
927,445	343,03
927,944	265,21
928,442	-789,49
928,942	-685,05
929,441	662,52
929,941	-60,42
930,442	-556,02
930,942	-603,13
931,443	668,66
931,945	-21,5
932,447	-648,18
932,949	-637,94
933,451	148,48
933,954	240,64
934,458	-388,09
934,961	-605,17
935,465	185,34
935,97	-27,65
936,475	-351,23
936,98	-742,39
937,486	-125,95
937,992	261,12
938,498	-601,08
939,005	-488,44
939,512	117,76
940,019	437,24
940,527	-474,1
941,035	-314,36
941,544	672,76
942,053	281,6
942,562	-226,3
943,072	-181,25
943,582	553,98
944,093	220,16
944,604	-783,35
945,115	-543,74
945,627	658,42
946,139	902,13
946,651	-523,26
947,164	-394,23
947,677	476,15
948,191	283,64
948,705	-676,85
949,219	-617,46
949,734	101,37
950,249	498,68
950,765	-570,36
951,281	-578,55
951,797	1340,4
952,314	666,61
952,831	-527,35
953,348	-783,35
953,866	601,08
954,384	224,25
954,903	-551,93
955,422	-773,11
955,941	263,16
956,461	242,68
956,981	-642,04
957,502	-324,6
958,023	580,6
958,544	420,86
959,066	-390,14
959,588	-701,43
960,11	54,27
960,633	730,1
961,156	-527,35
961,68	-488,44
962,204	748,53
962,729	-87,04
963,253	-594,93
963,779	-37,89
964,304	570,36
964,83	764,92
965,357	-713,72
965,883	-398,33
966,411	275,45
966,938	601,08
967,466	-484,34
967,994	-762,87
968,523	109,57
969,052	826,36
969,582	-572,41
970,112	-633,85
970,642	50,18
971,173	740,34
971,704	-599,03
972,235	-398,33
972,767	383,99
973,3	216,06
973,832	-431,1
974,365	-717,81
974,899	429,05
975,433	437,24
975,967	-750,58
976,502	-257,02
977,037	349,18
977,572	836,6
978,108	-635,89
978,644	-734,2
979,181	1047,54
979,718	644,09
980,255	-924,66
980,793	-396,28
981,331	-300,03
981,87	723,96
982,409	-551,93
982,948	-318,46
983,488	236,54
984,028	848,88
984,569	-435,19
985,11	-541,69
985,651	756,72
986,193	369,66
986,735	-689,14
987,278	-617,46
987,821	-136,19
988,364	254,97
988,908	-398,33
989,452	-705,53
989,997	-408,57
990,542	429,05
991,088	-664,57
991,633	-291,84
992,18	273,4
992,726	-224,25
993,273	-566,26
993,821	-353,27
994,369	332,79
994,917	715,77
995,465	-721,91
996,014	-754,68
996,564	592,89
997,114	44,03
997,664	-379,9
998,215	-717,81
998,766	306,17
999,317	-109,57
999,869	-414,71
1000,421	-742,39
1000,974	558,07
1001,527	642,04
1002,081	-623,61
1002,635	-324,6
1003,189	322,56
1003,744	715,77
1004,299	-723,96
1004,854	-482,3
1005,41	719,86
1005,967	109,57
1006,523	-545,78
1007,081	-461,82
1007,638	519,16
1008,196	394,23
1008,755	-650,23
1009,313	-377,85
1009,873	568,31
1010,432	-80,89
1010,992	-316,41
1011,553	-402,43
1012,114	332,79
1012,675	-29,7
1013,237	-439,29
1013,799	-103,42
1014,361	496,63
1014,924	-101,37
1015,487	-695,29
1016,051	-506,87
1016,615	650,23
1017,18	441,34
1017,745	-652,28
1018,31	-234,49
1018,876	799,73
1019,442	340,99
1020,009	-467,96
1020,576	-693,24
1021,143	300,03
1021,711	633,85
1022,28	-519,16
1022,848	-570,36
1023,417	762,87
1023,987	242,68
1024,557	-570,36
1025,127	-558,07
1025,698	-95,23
1026,269	31,74
1026,841	-705,53
1027,413	-412,67
1027,985	64,51
1028,558	355,32
1029,131	-672,76
1029,705	-379,9
1030,279	418,81
1030,854	402,43
1031,429	-676,85
1032,004	-218,11
1032,58	709,62
1033,156	-33,79
1033,733	-646,13
1034,31	-578,55
1034,887	605,17
1035,465	715,77
1036,043	-914,42
1036,622	-506,87
1037,201	226,3
1037,781	670,71
1038,361	-680,95
1038,941	-715,77
1039,522	390,14
1040,103	754,68
1040,685	-627,7
1041,267	-291,84
1041,85	1068,02
1042,433	478,2
1043,016	-642,04
1043,6	-453,63
1044,184	-363,51
1044,769	568,31
1045,354	-504,82
1045,939	-726
1046,525	318,46
1047,111	443,39
1047,698	-381,95
1048,285	-693,24
1048,873	437,24
1049,461	-37,89
1050,049	-660,47
1050,638	-590,84
1051,228	-46,08
1051,817	746,48
1052,407	-633,85
1052,998	-300,03
1053,589	441,34
1054,18	601,08
1054,772	-873,46
1055,365	-656,37
1055,957	513,02
1056,55	158,72
1057,144	-420,86
1057,738	-615,41
1058,333	171,01
1058,927	70,65
1059,523	-578,55
1060,118	-664,57
1060,715	44,03
1061,311	486,39
1061,908	-756,72
1062,506	-453,63
1063,103	474,1
1063,702	-11,26
1064,3	-855,03
1064,9	-668,66
1065,499	844,79
1066,099	89,09
1066,7	-537,59
1067,301	-840,69
1067,902	703,48
1068,504	701,43
1069,106	-267,26
1069,709	-390,14
1070,312	660,47
1070,915	537,59
1071,519	-721,91
1072,123	-398,33
1072,728	580,6
1073,333	209,92
1073,939	-248,83
1074,545	-553,98
1075,152	502,78
1075,759	27,65
1076,366	-721,91
1076,974	-373,75
1077,582	291,84
1078,191	633,85
1078,8	-519,16
1079,41	-758,77
1080,02	367,61
1080,63	429,05
1081,241	-101,37
1081,852	-846,84
1082,464	347,13
1083,076	449,53
1083,689	-603,13
1084,302	-455,67
1084,915	717,81
1085,529	484,34
1086,144	-570,36
1086,759	-420,86
1087,374	119,81
1087,99	146,43
1088,606	-664,57
1089,222	-553,98
1089,839	560,12
1090,457	238,59
1091,075	-500,73
1091,693	-914,42
1092,312	433,15
1092,931	830,45
1093,551	-607,22
1094,171	-291,84
1094,792	365,56
1095,413	84,99
1096,034	-537,59
1096,656	-525,3
1097,278	474,1
1097,901	267,26
1098,524	-654,33
1099,148	-338,94
1099,772	779,25
1100,397	302,08
1101,022	-746,48
1101,647	-539,64
1102,273	386,04
1102,899	652,28
1103,526	-928,75
1104,153	-373,75
1104,781	568,31
1105,409	701,43
1106,038	-627,7
1106,667	-779,25
1107,296	185,34
1107,926	177,15
1108,556	-234,49
1109,187	-531,45
1109,818	207,87
1110,45	629,75
1111,082	-500,73
1111,715	-644,09
1112,348	322,56
1112,981	216,06
1113,615	-324,6
1114,25	-531,45
1114,885	246,78
1115,52	144,38
1116,156	-773,11
1116,792	-607,22
1117,428	609,27
1118,066	19,46
1118,703	-320,51
1119,341	-613,37
1119,98	687,09
1120,618	834,55
1121,258	-713,72
1121,898	-766,96
1122,538	234,49
1123,179	-46,08
1123,82	-476,15
1124,461	-527,35
1125,103	621,56
1125,746	80,89
1126,389	-377,85
1127,032	-742,39
1127,676	506,87
1128,32	756,72
1128,965	-451,58
1129,61	-445,43
1130,256	21,5
1130,902	650,23
1131,549	-588,79
1132,196	-631,8
1132,844	611,32
1133,491	654,33
1134,14	-543,74
1134,789	-562,17
1135,438	986,1
1136,088	191,49
1136,738	-699,38
1137,389	-779,25
1138,04	445,43
1138,692	936,95
1139,344	-728,05
1139,996	-648,18
1140,649	461,82
1141,303	580,6
1141,957	-416,76
1142,611	-556,02
1143,266	383,99
1143,921	424,95
1144,577	-537,59
1145,233	-472,06
1145,89	103,42
1146,547	545,78
1147,205	-766,96
1147,863	-455,67
1148,521	351,23
1149,18	637,94
1149,84	-734,2
1150,5	-668,66
1151,16	271,36
1151,821	670,71
1152,482	-500,73
1153,144	-99,33
1153,806	359,42
1154,469	533,5
1155,132	-762,87
1155,796	-431,1
1156,46	494,58
1157,124	816,12
1157,789	-789,49
1158,455	-652,28
1159,121	240,64
1159,787	31,74
1160,454	-510,97
1161,121	-496,63
1161,789	263,16
1162,457	457,72
1163,126	-558,07
1163,795	-576,5
1164,465	244,73
1165,135	125,95
1165,806	-486,39
1166,477	-443,39
1167,148	-363,51
1167,82	420,86
1168,493	-777,2
1169,166	-373,75
1169,839	82,94
1170,513	400,38
1171,187	-680,95
1171,862	-578,55
1172,537	257,02
1173,213	496,63
1173,889	-615,41
1174,566	-664,57
1175,243	670,71
1175,921	195,58
1176,599	-510,97
1177,278	-304,12
1177,957	-21,5
1178,636	758,77
1179,316	-447,48
1179,997	-826,36
1180,678	560,12
1181,359	781,3
1182,041	-695,29
1182,723	-789,49
1183,406	648,18
1184,089	76,8
1184,773	-701,43
1185,457	-801,78
1186,142	9,22
1186,827	1166,32
1187,513	-726
1188,199	-201,72
1188,886	80,89
1189,573	283,64
1190,26	-496,63
1190,948	-664,57
1191,637	7,17
1192,326	66,56
1193,015	-689,14
1193,705	-709,62
1194,396	33,79
1195,087	216,06
1195,778	-404,47
1196,47	-730,1
1197,162	295,93
1197,855	414,71
1198,548	-576,5
1199,242	-830,45
1199,936	394,23
1200,631	617,46
1201,326	-744,44
1202,022	-668,66
1202,718	654,33
1203,415	396,28
1204,112	-842,74
1204,81	-486,39
1205,508	93,18
1206,206	828,4
1206,905	-588,79
1207,605	-607,22
1208,305	166,91
1209,005	250,88
1209,706	-742,39
1210,408	-777,2
1211,11	197,63
1211,812	404,47
1212,515	-545,78
1213,218	-527,35
1213,922	414,71
1214,627	240,64
1215,331	-578,55
1216,037	-488,44
1216,743	-46,08
1217,449	400,38
1218,156	-404,47
1218,863	-478,2
1219,571	195,58
1220,279	689,14
1220,988	-668,66
1221,697	-599,03
1222,406	582,65
1223,117	162,81
1223,827	-381,95
1224,538	-644,09
1225,25	232,44
1225,962	381,95
1226,675	-914,42
1227,388	-470,01
1228,101	224,25
1228,815	-54,27
1229,53	-525,3
1230,245	-504,82
1230,961	404,47
1231,677	211,96
1232,393	-553,98
1233,11	-592,89
1233,828	1092,59
1234,546	474,1
1235,264	-590,84
1235,983	-275,45
1236,702	1002,48
1237,422	396,28
1238,143	-355,32
1238,864	-666,61
1239,585	693,24
1240,307	-242,68
1241,029	-857,07
1241,752	-326,65
1242,476	584,7
1243,2	846,84
1243,924	-496,63
1244,649	-523,26
1245,374	535,54
1246,1	797,68
1246,826	-803,83
1247,553	-594,93
1248,28	416,76
1249,008	531,45
1249,737	-795,64
1250,465	-398,33
1251,195	515,06
1251,925	726
1252,655	-545,78
1253,386	-336,89
1254,117	314,36
1254,849	128
1255,581	-611,32
1256,314	-447,48
1257,047	703,48
1257,781	470,01
1258,515	-603,13
1259,25	-238,59
1259,985	320,51
1260,721	308,22
1261,457	-474,1
1262,194	-805,88
1262,931	138,24
1263,669	719,86
1264,407	-457,72
1265,146	-730,1
1265,885	359,42
1266,625	236,54
1267,365	-535,54
1268,106	-644,09
1268,847	281,6
1269,589	158,72
1270,331	-420,86
1271,074	-472,06
1271,817	390,14
1272,561	461,82
1273,305	-320,51
1274,05	-437,24
1274,795	388,09
1275,541	330,75
1276,287	-754,68
1277,034	-746,48
1277,781	54,27
1278,529	504,82
1279,277	-795,64
1280,026	-787,44
1280,775	736,24
1281,525	-463,86
1282,275	-824,31
1283,026	-152,57
1283,777	289,79
1284,529	404,47
1285,281	-560,12
1286,034	-799,73
1286,788	711,67
1287,541	367,61
1288,296	-943,09
1289,051	-332,79
1289,806	453,63
1290,562	510,97
1291,318	-701,43
1292,075	-527,35
1292,832	619,51
1293,59	859,12
1294,349	-664,57
1295,108	-596,98
1295,867	1055,73
1296,627	472,06
1297,387	-734,2
1298,148	-517,11
1298,91	340,99
1299,672	-17,41
1300,434	-601,08
1301,197	-734,2
1301,961	1258,48
1302,725	371,71
1303,489	-465,91
1304,254	-435,19
1305,02	494,58
1305,786	797,68
1306,552	-943,09
1307,319	-914,42
1308,087	834,55
1308,855	732,15
1309,624	-672,76
1310,393	-510,97
1311,162	-263,16
1311,933	594,93
1312,703	-590,84
1313,474	-427
1314,246	248,83
1315,018	654,33
1315,791	-248,83
1316,564	-648,18
1317,338	635,89
1318,112	226,3
1318,887	-861,17
1319,662	-439,29
1320,438	402,43
1321,214	84,99
1321,991	-375,8
1322,769	-699,38
1323,546	332,79
1324,325	119,81
1325,104	-676,85
1325,883	-553,98
1326,663	-41,98
1327,444	453,63
1328,224	-660,47
1329,006	-416,76
1329,788	367,61
1330,571	244,73
1331,354	-275,45
1332,137	-697,33
1332,921	670,71
1333,706	-82,94
1334,491	-359,42
1335,277	-537,59
1336,063	78,85
1336,849	183,29
1337,637	-625,65
1338,424	-644,09
1339,213	842,74
1340,001	865,27
1340,791	-693,24
1341,581	-439,29
1342,371	492,54
1343,162	211,96
1343,953	-582,65
1344,745	-504,82
1345,537	383,99
1346,33	545,78
1347,124	-668,66
1347,918	-353,27
1348,712	904,18
1349,507	396,28
1350,303	-613,37
1351,099	-463,86
1351,896	80,89
1352,693	-336,89
1353,49	-576,5
1354,289	-596,98
1355,087	437,24
1355,887	703,48
1356,686	-578,55
1357,487	-594,93
1358,288	-37,89
1359,089	211,96
1359,891	-119,81
1360,693	-461,82
1361,496	-111,61
1362,3	236,54
1363,104	-687,09
1363,908	-596,98
1364,713	785,4
1365,519	863,22
1366,325	-607,22
1367,131	-822,26
1367,939	222,2
1368,746	785,4
1369,555	-879,6
1370,363	-414,71
1371,173	674,81
1371,982	1158,13
1372,793	-674,81
1373,604	-814,07
1374,415	506,87
1375,227	646,13
1376,039	-781,3
1376,852	-625,65
1377,666	994,29
1378,48	320,51
1379,295	-736,24
1380,11	-764,92
1380,925	-7,17
1381,742	812,02
1382,558	-611,32
1383,376	-699,38
1384,193	404,47
1385,012	84,99
1385,831	-547,83
1386,65	-701,43
1387,47	187,39
1388,29	125,95
1389,111	-590,84
1389,933	-777,2
1390,755	644,09
1391,578	269,31
1392,401	-830,45
1393,225	-568,31
1394,049	889,84
1394,873	82,94
1395,699	-721,91
1396,525	-467,96
1397,351	674,81
1398,178	7,17
1399,005	-476,15
1399,833	-967,67
1400,662	461,82
1401,491	922,61
1402,321	-611,32
1403,151	-519,16
1403,981	326,65
1404,813	545,78
1405,644	-390,14
1406,477	-693,24
1407,309	265,21
1408,143	1068,02
1408,977	-672,76
1409,811	-644,09
1410,646	1031,15
1411,482	771,06
1412,318	-513,02
1413,155	-621,56
1413,992	658,42
1414,829	21,5
1415,668	-603,13
1416,506	-361,47
1417,346	783,35
1418,186	314,36
1419,026	-766,96
1419,867	-726
1420,709	599,03
1421,551	519,16
1422,393	-873,46
1423,236	-379,9
1424,08	234,49
1424,924	306,17
1425,769	-674,81
1426,614	-637,94
1427,46	470,01
1428,307	93,18
1429,154	-818,16
1430,001	-762,87
1430,849	320,51
1431,698	199,68
1432,547	-881,65
1433,397	-898,03
1434,247	562,17
1435,098	758,77
1435,949	-592,89
1436,801	-644,09
1437,653	146,43
1438,506	553,98
1439,36	-877,55
1440,214	-701,43
1441,069	535,54
1441,924	306,17
1442,78	-584,7
1443,636	-791,54
1444,493	224,25
1445,35	445,43
1446,208	-496,63
1447,067	-635,89
1447,926	441,34
1448,785	748,53
1449,645	-627,7
1450,506	-775,16
1451,367	383,99
1452,229	97,28
1453,091	-717,81
1453,954	-332,79
1454,818	230,4
1455,682	396,28
1456,546	-607,22
1457,412	-789,49
1458,277	621,56
1459,143	240,64
1460,01	-398,33
1460,878	-775,16
1461,745	257,02
1462,614	144,38
1463,483	-840,69
1464,352	-418,81
1465,223	699,38
1466,093	513,02
1466,964	-728,05
1467,836	-781,3
1468,709	691,19
1469,581	248,83
1470,455	-513,02
1471,329	-713,72
1472,203	11,26
1473,079	142,33
1473,954	-250,88
1474,831	-650,23
1475,707	101,37
1476,585	146,43
1477,463	-637,94
1478,341	-666,61
1479,22	5,12
1480,1	392,19
1480,98	-916,47
1481,861	-783,35
1482,742	383,99
1483,624	594,93
1484,506	-447,48
1485,389	-590,84
1486,273	183,29
1487,157	232,44
1488,041	-658,42
1488,926	-797,68
1489,812	355,32
1490,699	326,65
1491,585	-715,77
1492,473	-543,74
1493,361	-25,6
1494,249	211,96
1495,139	-500,73
1496,028	-566,26
1496,919	39,94
1497,809	363,51
1498,701	-697,33
1499,593	-576,5
1500,485	375,8
1501,378	596,98
1502,272	-330,75
1503,166	-594,93
1504,061	723,96
1504,956	318,46
1505,852	-603,13
1506,749	-771,06
1507,646	510,97
1508,543	203,77
1509,442	-824,31
1510,34	-132,09
1511,24	1094,64
1512,14	259,07
1513,04	-639,99
1513,941	-787,44
1514,843	1108,98
1515,745	-52,22
1516,648	-611,32
1517,551	-809,97
1518,455	-168,96
1519,359	-175,1
1520,264	-746,48
1521,17	-846,84
1522,076	121,85
1522,983	461,82
1523,89	-885,75
1524,798	-453,63
1525,706	396,28
1526,615	1219,57
1527,525	-902,13
1528,435	-611,32
1529,346	504,82
1530,257	-33,79
1531,169	-398,33
1532,081	-717,81
1532,994	957,43
1533,908	179,2
1534,822	-650,23
1535,737	-631,8
1536,652	414,71
1537,568	248,83
1538,484	-605,17
1539,401	-971,76
1540,319	920,56
1541,237	-37,89
1542,156	-777,2
1543,075	-726
1543,995	938,99
1544,916	990,19
1545,837	-687,09
1546,758	-713,72
1547,68	617,46
1548,603	609,27
1549,527	-492,54
1550,451	-758,77
1551,375	459,77
1552,3	687,09
1553,226	-920,56
1554,152	-717,81
1555,079	789,49
1556,006	277,5
1556,934	-490,49
1557,863	-566,26
1558,792	934,9
1559,722	89,09
1560,652	-488,44
1561,583	-902,13
1562,514	-50,18
1563,446	183,29
1564,379	-959,47
1565,312	-510,97
1566,246	592,89
1567,18	373,75
1568,115	-508,92
1569,051	-613,37
1569,987	726
1570,924	990,19
1571,861	-814,07
1572,799	-558,07
1573,737	615,41
1574,676	351,23
1575,616	-443,39
1576,556	-674,81
1577,497	-95,23
1578,438	144,38
1579,38	-734,2
1580,323	-551,93
1581,266	472,06
1582,21	656,37
1583,154	-674,81
1584,099	-693,24
1585,044	599,03
1585,99	672,76
1586,937	-379,9
1587,884	-617,46
1588,832	175,1
1589,78	877,55
1590,729	-652,28
1591,679	-453,63
1592,629	300,03
1593,58	408,57
1594,531	-523,26
1595,483	-523,26
1596,435	195,58
1597,388	-3,07
1598,342	-332,79
1599,296	-519,16
1600,251	547,83
1601,207	719,86
1602,163	-496,63
1603,119	-703,48
1604,077	699,38
1605,034	910,32
1605,993	-463,86
1606,952	-37,89
1607,911	273,4
1608,872	455,67
1609,832	-728,05
1610,794	-871,41
1611,756	488,44
1612,718	480,25
1613,681	-232,44
1614,645	-521,21
1615,609	812,02
1616,574	232,44
1617,54	-138,24
1618,506	-689,14
1619,472	783,35
1620,44	723,96
1621,408	-136,19
1622,376	-488,44
1623,345	431,1
1624,315	748,53
1625,285	-445,43
1626,256	-398,33
1627,227	461,82
1628,199	-76,8
1629,172	-472,06
1630,145	-439,29
1631,119	406,52
1632,094	973,81
1633,069	-480,25
1634,044	-302,08
1635,02	289,79
1635,997	764,92
1636,975	-553,98
1637,953	-742,39
1638,931	867,31
1639,911	60,42
1640,89	-715,77
1641,871	-592,89
1642,852	494,58
1643,833	300,03
1644,816	-783,35
1645,798	-781,3
1646,782	871,41
1647,766	68,61
1648,75	-709,62
1649,736	-537,59
1650,721	-56,32
1651,708	355,32
1652,695	-668,66
1653,682	-486,39
1654,671	388,09
1655,66	609,27
1656,649	-685,05
1657,639	-560,12
1658,63	-56,32
1659,621	101,37
1660,613	-844,79
1661,605	-676,85
1662,598	263,16
1663,592	191,49
1664,586	-979,95
1665,581	-775,16
1666,576	326,65
1667,572	351,23
1668,569	-662,52
1669,566	-726
1670,564	486,39
1671,563	842,74
1672,562	-603,13
1673,562	-300,03
1674,562	377,85
1675,563	482,3
1676,564	-427
1677,566	-592,89
1678,569	904,18
1679,572	-334,84
1680,576	-488,44
1681,581	-717,81
1682,586	78,85
1683,592	607,22
1684,598	-545,78
1685,605	-523,26
1686,613	639,99
1687,621	128
1688,63	-437,24
1689,639	-451,58
1690,649	168,96
1691,66	314,36
1692,671	-455,67
1693,683	-642,04
1694,696	3,07
1695,709	336,89
1696,722	-639,99
1697,737	-551,93
1698,752	93,18
1699,767	388,09
1700,783	-541,69
1701,8	-379,9
1702,818	406,52
1703,836	-25,6
1704,854	-789,49
1705,873	-623,61
1706,893	183,29
1707,914	365,56
1708,935	-556,02
1709,956	-492,54
1710,979	216,06
1712,002	228,35
1713,025	-660,47
1714,049	-553,98
1715,074	478,2
1716,099	631,8
1717,125	-693,24
1718,152	-674,81
1719,179	-1,02
1720,207	625,65
1721,235	-41,98
1722,265	-275,45
1723,294	254,97
1724,325	150,53
1725,355	-371,71
1726,387	-418,81
1727,419	363,51
1728,452	504,82
1729,485	-467,96
1730,519	-773,11
1731,554	60,42
1732,589	326,65
1733,625	-775,16
1734,662	-603,13
1735,699	-136,19
1736,736	764,92
1737,775	-680,95
1738,814	-584,7
1739,853	203,77
1740,894	244,73
1741,934	-445,43
1742,976	-603,13
1744,018	506,87
1745,061	250,88
1746,104	-646,13
1747,148	-738,29
1748,193	238,59
1749,238	320,51
1750,284	-492,54
1751,33	-709,62
1752,377	394,23
1753,425	979,95
1754,473	-584,7
1755,522	-537,59
1756,572	793,59
1757,622	549,88
1758,673	-723,96
1759,724	-496,63
1760,776	672,76
1761,829	740,34
1762,882	-349,18
1763,936	-721,91
1764,991	89,09
1766,046	1059,82
1767,102	-406,52
1768,158	-721,91
1769,215	412,67
1770,273	416,76
1771,331	-431,1
1772,39	-699,38
1773,45	457,72
1774,51	406,52
1775,571	-713,72
1776,632	-146,43
1777,694	293,88
1778,757	482,3
1779,82	-398,33
1780,884	-445,43
1781,949	39,94
1783,014	465,91
1784,08	-848,88
1785,147	-615,41
1786,214	179,2
1787,282	160,77
1788,35	-398,33
1789,419	-416,76
1790,489	678,9
1791,559	371,71
1792,63	-697,33
1793,702	-312,32
1794,774	203,77
1795,847	519,16
1796,92	-379,9
1797,994	-488,44
1799,069	470,01
1800,144	1129,45
1801,22	-525,3
1802,297	-281,6
1803,374	-154,62
1804,452	484,34
1805,531	-742,39
1806,61	-345,08
1807,69	547,83
1808,77	-138,24
1809,851	-492,54
1810,933	-832,5
1812,015	715,77
1813,098	13,31
1814,182	-576,5
1815,266	-388,09
1816,351	357,37
1817,437	302,08
1818,523	-470,01
1819,61	-533,5
1820,697	259,07
1821,785	1166,32
1822,874	-445,43
1823,963	-570,36
1825,053	181,25
1826,144	441,34
1827,235	-519,16
1828,327	-603,13
1829,42	306,17
1830,513	-62,46
1831,607	-695,29
1832,701	-664,57
1833,796	158,72
1834,892	711,67
1835,989	-756,72
1837,086	-639,99
1838,183	259,07
1839,282	275,45
1840,381	-660,47
1841,48	-611,32
1842,581	412,67
1843,682	869,36
1844,783	-316,41
1845,885	-375,8
1846,988	562,17
1848,092	568,31
1849,196	-441,34
1850,301	-447,48
1851,406	-29,7
1852,512	1010,67
1853,619	-521,21
1854,726	-652,28
1855,834	50,18
1856,943	699,38
1858,052	-594,93
1859,162	-492,54
1860,273	330,75
1861,384	728,05
1862,496	-576,5
1863,608	-676,85
1864,721	396,28
1865,835	103,42
1866,95	-635,89
1868,065	-586,74
1869,181	101,37
1870,297	578,55
1871,414	-406,52
1872,532	-812,02
1873,65	166,91
1874,769	158,72
1875,889	-691,19
1877,009	-222,2
1878,13	383,99
1879,252	777,2
1880,374	-496,63
1881,497	-656,37
1882,62	347,13
1883,745	171,01
1884,87	-762,87
1885,995	-691,19
1887,121	226,3
1888,248	-50,18
1889,376	-689,14
1890,504	-664,57
1891,632	310,27
1892,762	220,16
1893,892	-723,96
1895,023	-443,39
1896,154	93,18
1897,286	261,12
1898,419	-619,51
1899,552	-537,59
1900,686	519,16
1901,821	422,91
1902,956	-631,8
1904,092	-607,22
1905,229	791,54
1906,366	429,05
1907,504	-685,05
1908,643	-599,03
1909,782	553,98
