Data from led_USB4H112691__2__11-27-08-548.txt Node

Date: Tue Dec 17 11:27:08 CET 2024
User: Etudiants TP
Spectrometer: USB4H11269
Trigger mode: 4
Integration Time (sec): 1,000000E0
Scans to average: 1
Electric dark correction enabled: true
Nonlinearity correction enabled: false
Boxcar width: 0
XAxis mode: Wavelengths
Number of Pixels in Spectrum: 3648
>>>>>Begin Spectral Data<<<<<
286,377	-1567,38
286,631	-1567,38
286,884	-1567,38
287,138	-1628,82
287,391	-1622,67
287,644	-801,44
287,896	-658,08
288,149	712,01
288,401	521,55
288,653	-502,43
288,905	-469,67
289,157	828,74
289,409	320,85
289,661	-459,43
289,912	-688,8
290,163	468,3
290,414	728,39
290,665	-682,66
290,916	-617,12
291,166	423,25
291,417	1144,13
291,667	-580,26
291,917	-281,25
292,167	441,68
292,417	365,9
292,666	-742,05
292,916	-723,62
293,165	488,78
293,414	638,28
293,663	-846,49
293,912	-674,46
294,16	714,06
294,408	705,87
294,657	-715,42
294,905	-375,46
295,153	554,32
295,4	730,44
295,648	-748,19
295,895	-752,29
296,143	71
296,39	834,89
296,637	-565,92
296,884	-776,86
297,13	632,14
297,377	812,36
297,623	-592,55
297,869	-385,7
298,115	693,58
298,361	619,85
298,606	-780,96
298,852	-633,51
299,097	464,21
299,342	1039,69
299,587	-420,52
299,832	-561,83
300,077	724,3
300,322	628,04
300,566	-703,14
300,81	-508,58
301,054	425,29
301,298	793,93
301,542	-209,58
301,785	-303,78
302,029	947,53
302,272	728,39
302,515	-772,77
302,758	-565,92
303,001	763,21
303,244	738,63
303,486	-584,35
303,729	-856,73
303,971	949,57
304,213	861,51
304,455	-860,83
304,696	-426,66
304,938	236,88
305,179	712,01
305,421	-420,52
305,662	-461,48
305,903	324,94
306,143	283,99
306,384	-420,52
306,625	-502,43
306,865	439,63
307,105	228,69
307,345	-445,09
307,585	-502,43
307,825	40,28
308,064	767,31
308,304	-553,63
308,543	-772,77
308,782	503,12
309,021	744,78
309,26	-387,75
309,499	-496,29
309,737	877,9
309,976	691,53
310,214	-723,62
310,452	-641,7
310,69	1066,31
310,928	177,49
311,165	-627,36
311,403	-563,87
311,64	820,55
311,878	546,12
312,115	-588,45
312,351	-490,15
312,588	435,53
312,825	925
313,061	-748,19
313,298	-47,79
313,534	181,59
313,77	732,49
314,006	-535,2
314,241	-639,65
314,477	578,89
314,713	1103,17
314,948	-574,11
315,183	130,39
315,418	906,57
315,653	554,32
315,888	-699,04
316,122	-432,8
316,357	249,17
316,591	877,9
316,825	-608,93
317,059	-590,5
317,293	929,1
317,527	476,49
317,76	-647,84
317,994	-473,76
318,227	787,79
318,46	1094,98
318,693	-742,05
318,926	-469,67
319,159	99,67
319,391	492,88
319,624	-719,52
319,856	-582,31
320,088	761,16
320,321	632,14
320,552	-391,84
320,784	-598,69
321,016	843,08
321,247	50,52
321,479	-305,83
321,71	-420,52
321,941	-174,76
322,172	1131,84
322,403	-576,16
322,633	-303,78
322,864	867,66
323,094	226,64
323,325	-51,88
323,555	-535,2
323,785	152,91
324,014	259,41
324,244	-414,37
324,474	-451,24
324,703	855,37
324,933	736,59
325,162	-436,9
325,391	-750,24
325,62	-6,83
325,848	777,55
326,077	-559,78
326,306	-449,19
326,534	703,82
326,762	1041,73
326,99	-512,67
327,218	-273,06
327,446	802,12
327,674	42,32
327,901	-656,03
328,129	-570,02
328,356	734,54
328,583	202,07
328,81	-637,6
329,037	-379,56
329,264	456,01
329,491	826,7
329,717	-430,76
329,944	-637,6
330,17	312,66
330,396	169,3
330,622	-686,75
330,848	-330,41
331,074	423,25
331,299	1447,23
331,525	-629,41
331,75	-608,93
331,975	869,7
332,201	204,11
332,426	-772,77
332,65	-658,08
332,875	-191,14
333,1	370
333,324	-645,79
333,549	-574,11
333,773	234,83
333,997	537,93
334,221	-584,35
334,445	-617,12
334,668	578,89
334,892	1058,12
335,116	-387,75
335,339	-494,24
335,562	23,89
335,785	406,86
336,008	-326,31
336,231	-567,97
336,454	-246,44
336,676	904,52
336,899	-461,48
337,121	-346,79
337,343	-53,93
337,566	441,68
337,788	-588,45
338,009	-621,22
338,231	62,8
338,453	431,44
338,674	3192,1
338,896	-502,43
339,117	-51,88
339,338	998,73
339,559	-666,27
339,78	-549,54
340,001	-12,97
340,222	816,46
340,442	-555,68
340,663	-221,86
340,883	701,77
341,103	421,2
341,323	-567,97
341,543	-432,8
341,763	767,31
341,983	318,8
342,202	-690,85
342,422	-666,27
342,641	1099,08
342,861	347,47
343,08	-232,1
343,299	-672,42
343,518	591,18
343,736	580,94
343,955	-594,59
344,174	-649,89
344,392	703,82
344,61	132,44
344,829	-731,81
345,047	-539,3
345,265	638,28
345,483	816,46
345,7	-617,12
345,918	-174,76
346,136	75,09
346,353	658,76
346,57	-711,33
346,788	-598,69
347,005	271,7
347,222	-31,4
347,438	-19,11
347,655	-565,92
347,872	138,58
348,088	1037,64
348,305	-481,96
348,521	-543,39
348,737	109,91
348,953	963,91
349,169	-223,91
349,385	-436,9
349,601	451,92
349,817	-88,75
350,032	-203,43
350,248	-342,69
350,463	1178,95
350,678	-301,73
350,893	-592,55
351,108	-705,18
351,323	193,87
351,538	738,63
351,753	-715,42
351,967	-588,45
352,182	818,5
352,396	224,59
352,61	-637,6
352,824	-588,45
353,038	564,56
353,252	730,44
353,466	-346,79
353,68	-586,4
353,894	333,14
354,107	185,68
354,32	-352,93
354,534	-535,2
354,747	542,03
354,96	-35,5
355,173	-346,79
355,386	-731,81
355,599	388,43
355,811	283,99
356,024	-631,46
356,236	-441
356,449	185,68
356,661	288,08
356,873	-694,94
357,085	-805,53
357,297	572,75
357,509	595,28
357,721	-627,36
357,933	-527,01
358,144	283,99
358,356	148,82
358,567	-377,51
358,778	-672,42
358,989	785,74
359,2	144,72
359,411	-484
359,622	-246,44
359,833	466,25
360,044	286,03
360,254	-561,83
360,465	-696,99
360,675	423,25
360,885	329,04
361,096	-694,94
361,306	-508,58
361,516	177,49
361,726	357,71
361,935	-836,25
362,145	-471,72
362,355	550,22
362,564	480,59
362,774	-768,67
362,983	-852,64
363,192	720,2
363,401	95,57
363,61	-574,11
363,819	-221,86
364,028	324,94
364,237	935,24
364,445	-621,22
364,654	-338,6
364,862	320,85
365,071	120,15
365,279	-363,17
365,487	-662,18
365,695	658,76
365,903	318,8
366,111	-793,25
366,319	-502,43
366,527	578,89
366,734	245,07
366,942	-367,27
367,149	-649,89
367,357	-481,96
367,564	943,43
367,771	-467,62
367,978	-672,42
368,185	25,94
368,392	337,23
368,599	-346,79
368,806	-567,97
369,013	-60,07
369,219	421,2
369,426	-727,71
369,632	-260,77
369,838	1037,64
370,044	499,02
370,251	-516,77
370,457	-477,86
370,663	838,98
370,868	353,62
371,074	-594,59
371,28	-592,55
371,485	-205,48
371,691	529,74
371,896	-559,78
372,102	-713,38
372,307	1047,88
372,512	822,6
372,717	-598,69
372,922	-260,77
373,127	15,7
373,332	312,66
373,537	-516,77
373,741	-543,39
373,946	505,17
374,151	204,11
374,355	-709,28
374,559	-512,67
374,764	114
374,968	-281,25
375,172	-641,7
375,376	-223,91
375,58	386,38
375,784	5,46
375,987	-694,94
376,191	-621,22
376,395	103,76
376,598	251,22
376,802	-707,23
377,005	-217,77
377,208	245,07
377,412	58,71
377,615	-696,99
377,818	-600,74
378,021	62,8
378,224	-139,94
378,426	-557,73
378,629	-727,71
378,832	681,29
379,034	638,28
379,237	-864,93
379,439	-860,83
379,642	718,15
379,844	564,56
380,046	-871,07
380,248	-705,18
380,45	-133,8
380,652	-248,49
380,854	-551,59
381,056	-580,26
381,258	357,71
381,459	365,9
381,661	-731,81
381,862	-367,27
382,064	-164,52
382,265	193,87
382,467	-662,18
382,668	-484
382,869	656,72
383,07	343,38
383,271	-445,09
383,472	-639,65
383,673	681,29
383,874	398,67
384,074	-477,86
384,275	-760,48
384,476	496,97
384,676	1111,36
384,876	-729,76
385,077	-598,69
385,277	759,11
385,477	873,8
385,677	-750,24
385,878	-447,14
386,078	316,75
386,278	326,99
386,477	-252,58
386,677	-221,86
386,877	349,52
387,077	623,95
387,276	-393,89
387,476	-510,63
387,675	347,47
387,875	804,17
388,074	-688,8
388,273	-449,19
388,472	824,65
388,671	-125,61
388,87	-639,65
389,069	-146,09
389,268	-199,34
389,467	5,46
389,666	-731,81
389,865	-303,78
390,063	527,69
390,262	703,82
390,461	-617,12
390,659	-645,79
390,857	673,1
391,056	664,91
391,254	-598,69
391,452	-580,26
391,65	767,31
391,849	478,54
392,047	-445,09
392,245	-252,58
392,442	247,12
392,64	505,17
392,838	-342,69
393,036	-486,05
393,233	353,62
393,431	218,45
393,629	-789,15
393,826	-453,28
394,023	234,83
394,221	-68,27
394,418	-385,7
394,615	-256,68
394,812	-133,8
395,01	767,31
395,207	-588,45
395,404	-608,93
395,601	845,13
395,797	367,95
395,994	-731,81
396,191	-551,59
396,388	220,5
396,584	720,2
396,781	-283,3
396,977	-43,69
397,174	611,66
397,37	-88,75
397,567	-459,43
397,763	-594,59
397,959	259,41
398,155	122,2
398,352	-457,38
398,548	-205,48
398,744	525,65
398,94	390,48
399,136	-737,95
399,331	-221,86
399,527	324,94
399,723	574,8
399,919	-436,9
400,114	-479,91
400,31	150,87
400,505	517,45
400,701	-584,35
400,896	-553,63
401,092	114
401,287	357,71
401,482	-764,57
401,678	-436,9
401,873	587,08
402,068	722,25
402,263	-387,75
402,458	-465,57
402,653	40,28
402,848	501,07
403,043	-502,43
403,237	-570,02
403,432	87,38
403,627	-271,01
403,822	-729,76
404,016	-604,83
404,211	97,62
404,405	638,28
404,6	-213,67
404,794	-281,25
404,989	550,22
405,183	75,09
405,377	-256,68
405,571	-162,47
405,766	527,69
405,96	214,35
406,154	-527,01
406,348	-402,08
406,542	439,63
406,736	499,02
406,93	-600,74
407,124	-354,98
407,318	300,37
407,511	376,14
407,705	-314,02
407,899	-465,57
408,092	552,27
408,286	324,94
408,48	-711,33
408,673	-625,31
408,867	1,37
409,06	238,93
409,253	-332,45
409,447	-436,9
409,64	607,56
409,833	347,47
410,026	-389,8
410,22	-340,65
410,413	703,82
410,606	394,58
410,799	-682,66
410,992	-469,67
411,185	245,07
411,378	933,19
411,571	-477,86
411,764	-395,94
411,956	636,24
412,149	456,01
412,342	-350,89
412,534	-428,71
412,727	513,36
412,92	462,16
413,112	-348,84
413,305	-211,62
413,497	703,82
413,69	564,56
413,882	-418,47
414,075	-195,24
414,267	456,01
414,459	243,03
414,652	-588,45
414,844	-508,58
415,036	370
415,228	746,83
415,42	-277,16
415,612	-565,92
415,804	861,51
415,997	511,31
416,188	-275,11
416,38	-363,17
416,572	50,52
416,764	652,62
416,956	-436,9
417,148	-531,11
417,34	257,36
417,531	95,57
417,723	-500,39
417,915	-453,28
418,107	144,72
418,298	423,25
418,49	-402,08
418,681	-228,01
418,873	736,59
419,064	433,49
419,256	-377,51
419,447	-412,32
419,639	566,6
419,83	820,55
420,021	-305,83
420,213	-486,05
420,404	341,33
420,595	468,3
420,786	-273,06
420,978	-293,54
421,169	628,04
421,36	267,6
421,551	-445,09
421,742	-461,48
421,933	884,04
422,124	619,85
422,315	-342,69
422,506	-412,32
422,697	591,18
422,888	138,58
423,079	-129,7
423,27	-477,86
423,461	292,18
423,652	220,5
423,842	-492,2
424,033	-375,46
424,224	601,42
424,415	998,73
424,605	-262,82
424,796	-404,13
424,987	550,22
425,177	470,35
425,368	-664,22
425,558	-490,15
425,749	296,27
425,939	220,5
426,13	-58,03
426,32	-248,49
426,511	177,49
426,701	220,5
426,892	-334,5
427,082	-402,08
427,272	204,11
427,463	472,4
427,653	-297,64
427,843	-273,06
428,034	873,8
428,224	628,04
428,414	-484
428,604	-234,15
428,795	513,36
428,985	556,36
429,175	-88,75
429,365	-105,13
429,555	492,88
429,745	316,75
429,935	-240,3
430,126	-197,29
430,316	759,11
430,506	746,83
430,696	-293,54
430,886	-162,47
431,076	537,93
431,266	218,45
431,456	-47,79
431,645	-301,73
431,835	316,75
432,025	521,55
432,215	-393,89
432,405	-107,18
432,595	496,97
432,785	390,48
432,975	-273,06
433,164	-535,2
433,354	245,07
433,544	597,32
433,734	-430,76
433,923	-146,09
434,113	472,4
434,303	410,96
434,493	-74,41
434,682	-260,77
434,872	654,67
435,062	103,76
435,251	-232,1
435,441	-283,3
435,631	828,74
435,82	398,67
436,01	-361,13
436,2	-174,76
436,389	370
436,579	982,34
436,768	66,9
436,958	71
437,147	417,1
437,337	787,79
437,527	-96,94
437,716	-228,01
437,906	851,27
438,095	460,11
438,285	-230,06
438,474	-96,94
438,664	910,66
438,853	660,81
439,043	-2,73
439,232	-256,68
439,422	652,62
439,611	697,67
439,8	-236,2
439,99	185,68
440,179	847,18
440,369	1111,36
440,558	-314,02
440,748	-74,41
440,937	519,5
441,126	292,18
441,316	185,68
441,505	-58,03
441,695	824,65
441,884	1236,29
442,073	-25,26
442,263	-80,55
442,452	709,96
442,642	843,08
442,831	-51,88
443,02	337,23
443,21	1303,87
443,399	1719,61
443,588	62,8
443,778	197,97
443,967	1353,02
444,156	1006,92
444,346	-90,79
444,535	-72,36
444,725	1418,56
444,914	814,41
445,103	5,46
445,293	185,68
445,482	1348,93
445,671	927,05
445,861	238,93
446,05	210,26
446,239	1090,88
446,429	755,02
446,618	9,56
446,807	345,42
446,997	1099,08
447,186	1181
447,376	193,87
447,565	271,7
447,754	1412,42
447,944	1463,62
448,133	234,83
448,322	30,04
448,512	783,69
448,701	1561,92
448,891	290,13
449,08	337,23
449,269	447,82
449,459	718,15
449,648	218,45
449,838	212,31
450,027	793,93
450,217	734,54
450,406	75,09
450,595	382,29
450,785	1178,95
450,974	1189,19
451,164	48,47
451,353	353,62
451,543	1105,22
451,732	1471,81
451,922	111,96
452,111	193,87
452,301	611,66
452,49	595,28
452,68	-68,27
452,869	607,56
453,059	636,24
453,249	1283,39
453,438	-88,75
453,628	363,86
453,817	949,57
454,007	818,5
454,197	-121,51
454,386	187,73
454,576	1303,87
454,765	1181
454,955	185,68
455,145	-4,78
455,334	845,13
455,524	664,91
455,714	318,8
455,904	13,65
456,093	1654,08
456,283	1066,31
456,473	64,85
456,663	38,23
456,852	906,57
457,042	965,96
457,232	136,53
457,422	783,69
457,612	972,1
457,802	1250,63
457,991	-113,32
458,181	9,56
458,371	1006,92
458,561	1054,02
458,751	114
458,941	-43,69
459,131	785,74
459,321	640,33
459,511	353,62
459,701	169,3
459,891	945,48
460,081	431,44
460,271	138,58
460,461	-82,6
460,651	1523,01
460,841	1353,02
461,032	7,51
461,222	54,61
461,412	693,58
461,602	1631,55
461,792	-234,15
461,983	-232,1
462,173	898,38
462,363	1570,11
462,554	122,2
462,744	42,32
462,934	1144,13
463,125	922,95
463,315	-162,47
463,505	152,91
463,696	1043,78
463,886	648,52
464,077	-76,46
464,267	-35,5
464,458	1238,34
464,648	460,11
464,839	136,53
465,03	32,08
465,22	544,08
465,411	916,81
465,601	-37,55
465,792	-15,02
465,983	701,77
466,174	904,52
466,364	-289,45
466,555	-19,11
466,746	1054,02
466,937	623,95
467,128	-121,51
467,319	-82,6
467,51	1127,75
467,701	1746,23
467,891	44,37
468,082	-164,52
468,274	769,35
468,465	157,01
468,656	157,01
468,847	-248,49
469,038	419,15
469,229	576,84
469,42	-19,11
469,612	-103,08
469,803	1078,6
469,994	1103,17
470,185	48,47
470,377	-150,18
470,568	845,13
470,76	908,62
470,951	-66,22
471,142	157,01
471,334	1146,18
471,526	767,31
471,717	97,62
471,909	-223,91
472,1	671,05
472,292	939,34
472,484	-125,61
472,675	-62,12
472,867	867,66
473,059	1348,93
473,251	83,28
473,443	-111,27
473,635	791,88
473,826	1074,5
474,018	-51,88
474,21	56,66
474,402	935,24
474,595	1279,3
474,787	30,04
474,979	222,55
475,171	576,84
475,363	400,72
475,555	-316,07
475,748	-47,79
475,94	1039,69
476,132	689,48
476,325	-158,38
476,517	443,73
476,71	1576,25
476,902	673,1
477,095	-39,59
477,287	271,7
477,48	1054,02
477,673	810,31
477,865	177,49
478,058	99,67
478,251	968,01
478,444	1338,69
478,636	95,57
478,829	-4,78
479,022	974,15
479,215	1094,98
479,408	146,77
479,601	447,82
479,794	650,57
479,988	742,73
480,181	152,91
480,374	193,87
480,567	1056,07
480,76	1488,19
480,954	173,39
481,147	-133,8
481,341	742,73
481,534	765,26
481,728	171,35
481,921	376,14
482,115	1226,05
482,308	1373,5
482,502	-2,73
482,696	75,09
482,89	1735,99
483,084	1154,37
483,277	226,64
483,471	234,83
483,665	1318,21
483,859	2184,5
484,053	-191,14
484,247	-43,69
484,442	957,77
484,636	1056,07
484,83	85,33
485,024	304,46
485,219	935,24
485,413	845,13
485,608	34,13
485,802	406,86
485,997	1359,17
486,191	980,29
486,386	105,81
486,58	240,98
486,775	1209,67
486,97	1299,78
487,165	89,43
487,36	236,88
487,555	1080,64
487,75	908,62
487,945	296,27
488,14	13,65
488,335	836,94
488,53	939,34
488,725	189,78
488,92	288,08
489,116	1549,63
489,311	1035,59
489,507	64,85
489,702	740,68
489,898	1588,54
490,093	744,78
490,289	501,07
490,485	234,83
490,68	570,7
490,876	1459,52
491,072	93,52
491,268	357,71
491,464	1391,94
491,66	1256,77
491,856	306,51
492,052	681,29
492,248	1340,74
492,445	1137,99
492,641	189,78
492,837	249,17
493,034	1480
493,23	1633,6
493,427	603,47
493,623	308,56
493,82	1299,78
494,017	1676,6
494,214	259,41
494,41	138,58
494,607	1277,25
494,804	859,46
495,001	433,49
495,198	404,82
495,395	1367,36
495,593	1385,79
495,79	224,59
495,987	245,07
496,184	662,86
496,382	1299,78
496,579	189,78
496,777	365,9
496,974	1867,06
497,172	1408,32
497,37	337,23
497,568	159,06
497,766	2004,28
497,963	1279,3
498,161	275,79
498,359	533,84
498,558	1768,76
498,756	1568,06
498,954	271,7
499,152	664,91
499,351	1473,85
499,549	1455,42
499,747	404,82
499,946	415,05
500,145	1097,03
500,343	1051,97
500,542	236,88
500,741	439,63
500,94	1326,4
501,139	1709,37
501,338	372,05
501,537	626
501,736	1848,63
501,935	1537,34
502,134	300,37
502,334	439,63
502,533	1727,8
502,733	1482,05
502,932	578,89
503,132	492,88
503,331	1299,78
503,531	1582,4
503,731	496,97
503,931	464,21
504,131	1144,13
504,331	1703,23
504,531	460,11
504,731	466,25
504,931	1377,6
505,132	1412,42
505,332	472,4
505,532	531,79
505,733	1563,97
505,933	2030,9
506,134	697,67
506,335	370
506,536	1160,52
506,736	1586,49
506,937	480,59
507,138	386,38
507,34	2168,12
507,541	1496,38
507,742	689,48
507,943	357,71
508,145	1424,7
508,346	976,2
508,548	161,11
508,749	445,77
508,951	1049,93
509,153	1164,61
509,354	556,36
509,556	595,28
509,758	1656,12
509,96	955,72
510,163	759,11
510,365	701,77
510,567	1121,6
510,769	1246,53
510,972	445,77
511,174	849,22
511,377	1043,78
511,58	2377,01
511,782	392,53
511,985	476,49
512,188	2063,67
512,391	1641,79
512,594	341,33
512,797	605,52
513,001	1770,81
513,204	2024,76
513,407	562,51
513,611	626
513,814	1570,11
514,018	1948,98
514,222	652,62
514,425	623,95
514,629	1490,24
514,833	1447,23
515,037	777,55
515,241	552,27
515,445	1221,95
515,65	1160,52
515,854	660,81
516,059	703,82
516,263	1695,04
516,468	1750,33
516,672	607,56
516,877	695,63
517,082	925
517,287	1576,25
517,492	820,55
517,697	623,95
517,902	1594,68
518,107	1277,25
518,313	816,46
518,518	619,85
518,724	2133,3
518,929	1473,85
519,135	798,03
519,341	429,39
519,547	1586,49
519,753	1819,96
519,959	531,79
520,165	685,39
520,371	1834,3
520,577	2250,04
520,784	466,25
520,99	976,2
521,197	1647,93
521,404	1559,87
521,61	464,21
521,817	638,28
522,024	2069,81
522,231	1408,32
522,438	398,67
522,645	1137,99
522,853	1406,27
523,06	1791,29
523,268	810,31
523,475	718,15
523,683	1709,37
523,891	1795,39
524,098	425,29
524,306	720,2
524,514	1561,92
524,722	1414,46
524,931	765,26
525,139	714,06
525,347	972,1
525,556	1523,01
525,764	832,84
525,973	877,9
526,182	1742,14
526,391	1398,08
526,6	556,36
526,809	761,16
527,018	1656,12
527,227	1754,43
527,436	730,44
527,646	763,21
527,855	1701,18
528,065	1488,19
528,275	607,56
528,484	628,04
528,694	1865,02
528,904	1635,64
529,114	619,85
529,325	648,52
529,535	1129,8
529,745	1873,21
529,956	636,24
530,166	738,63
530,377	1631,55
530,588	2094,39
530,799	972,1
531,01	742,73
531,221	1971,51
531,432	1957,18
531,643	800,07
531,855	1201,47
532,066	1867,06
532,278	1594,68
532,489	783,69
532,701	693,58
532,913	1971,51
533,125	1828,15
533,337	492,88
533,549	601,42
533,762	1951,03
533,974	1135,94
534,186	447,82
534,399	972,1
534,612	1981,75
534,825	1572,16
535,037	857,42
535,25	884,04
535,464	1326,4
535,677	2022,71
535,89	648,52
536,104	916,81
536,317	1557,82
536,531	1545,53
536,744	1115,46
536,958	853,32
537,172	1723,71
537,386	1510,72
537,6	906,57
537,815	722,25
538,029	1955,13
538,244	2053,43
538,458	562,51
538,673	709,96
538,888	1877,3
539,103	2307,38
539,318	1082,69
539,533	777,55
539,748	1662,27
539,963	1477,95
540,179	587,08
540,394	537,93
540,61	1213,76
540,826	1512,77
541,042	738,63
541,258	628,04
541,474	2141,49
541,69	1611,07
541,906	738,63
542,123	685,39
542,339	1719,61
542,556	1596,73
542,773	718,15
542,99	931,14
543,207	1496,38
543,424	1420,61
543,641	996,68
543,858	996,68
544,076	1514,81
544,293	1375,55
544,511	730,44
544,729	738,63
544,947	1568,06
545,165	1701,18
545,383	726,35
545,601	689,48
545,819	1801,53
546,038	1611,07
546,256	984,39
546,475	894,28
546,694	2489,65
546,913	2004,28
547,132	1318,21
547,351	769,35
547,57	1353,02
547,79	1275,2
548,009	800,07
548,229	656,72
548,449	1480
548,668	1932,6
548,888	927,05
549,109	781,64
549,329	1785,15
549,549	2061,62
549,77	816,46
549,99	959,81
550,211	1936,7
550,432	2254,13
550,653	607,56
550,874	900,42
551,095	2463,02
551,316	1611,07
551,538	771,4
551,759	947,53
551,981	1563,97
552,203	2018,61
552,424	744,78
552,646	1164,61
552,869	1578,3
553,091	1606,97
553,313	972,1
553,536	879,94
553,758	2059,57
553,981	1750,33
554,204	656,72
554,427	943,43
554,65	1940,79
554,873	1258,82
555,097	511,31
555,32	847,18
555,544	2080,05
555,768	1955,13
555,992	789,83
556,216	613,71
556,44	1398,08
556,664	1940,79
556,888	1178,95
557,113	685,39
557,337	2334
557,562	2164,02
557,787	748,87
558,012	1015,11
558,237	1699,13
558,462	1582,4
558,688	1039,69
558,913	857,42
559,139	1303,87
559,365	1908,02
559,591	849,22
559,817	828,74
560,043	2127,16
560,269	2164,02
560,496	1264,96
560,722	910,66
560,949	2200,88
561,176	1273,15
561,403	884,04
561,63	1049,93
561,857	1246,53
562,084	1455,42
562,312	730,44
562,539	990,53
562,767	2129,2
562,995	1525,05
563,223	832,84
563,451	1070,4
563,679	1584,45
563,908	1660,22
564,136	922,95
564,365	1013,06
564,594	1254,72
564,823	2884,91
565,052	953,67
565,281	607,56
565,51	1776,95
565,74	1533,25
565,969	615,76
566,199	976,2
566,429	1871,16
566,659	2012,47
566,889	843,08
567,119	816,46
567,35	2168,12
567,58	2069,81
567,811	1058,12
568,042	832,84
568,273	1543,49
568,504	1938,74
568,735	955,72
568,966	767,31
569,198	1742,14
569,43	2143,54
569,661	881,99
569,893	1258,82
570,125	2290,99
570,358	2090,29
570,59	816,46
570,822	822,6
571,055	1922,36
571,288	2121,01
571,521	777,55
571,754	783,69
571,987	2260,27
572,22	1824,06
572,454	865,61
572,687	1029,45
572,921	1344,83
573,155	1750,33
573,389	1418,56
573,623	1250,63
573,858	1533,25
574,092	2014,52
574,327	980,29
574,561	1299,78
574,796	1457,47
575,031	1924,41
575,266	767,31
575,502	1039,69
575,737	2139,44
575,973	1721,66
576,209	894,28
576,445	959,81
576,681	1533,25
576,917	1865,02
577,153	851,27
577,39	871,75
577,626	1897,78
577,863	1748,28
578,1	703,82
578,337	1097,03
578,574	1492,29
578,812	2053,43
579,049	906,57
579,287	832,84
579,525	2012,47
579,763	1889,59
580,001	742,73
580,239	849,22
580,478	2303,28
580,716	1688,89
580,955	939,34
581,194	1146,18
581,433	2082,1
581,672	1750,33
581,911	832,84
582,151	712,01
582,39	1697,08
582,63	2319,67
582,87	824,65
583,11	945,48
583,35	1332,54
583,591	1703,23
583,831	1117,51
584,072	1336,64
584,313	1873,21
584,554	1828,15
584,795	939,34
585,036	1068,36
585,277	2497,84
585,519	2014,52
585,761	804,17
586,003	781,64
586,245	1889,59
586,487	2311,47
586,729	1131,84
586,972	963,91
587,215	2737,45
587,457	1330,5
587,7	1121,6
587,944	1119,56
588,187	1623,36
588,43	1752,38
588,674	947,53
588,918	890,18
589,162	2088,25
589,406	1496,38
589,65	722,25
589,894	1629,5
590,139	2073,91
590,384	2155,83
590,629	757,07
590,874	994,63
591,119	1295,68
591,364	1932,6
591,61	814,41
591,855	712,01
592,101	2463,02
592,347	1965,37
592,593	1031,49
592,84	1193,28
593,086	2485,55
593,333	1582,4
593,58	832,84
593,827	742,73
594,074	1817,91
594,321	1735,99
594,568	937,29
594,816	742,73
595,064	1772,86
595,312	1742,14
595,56	861,51
595,808	1135,94
596,057	2164,02
596,305	1684,8
596,554	677,2
596,803	1131,84
597,052	2047,29
597,301	2297,14
597,551	720,2
597,8	1033,54
598,05	1969,46
598,3	1719,61
598,55	691,53
598,8	808,26
599,051	1502,53
599,301	1631,55
599,552	636,24
599,803	1140,04
600,054	1946,94
600,305	1735,99
600,556	974,15
600,808	972,1
601,06	1637,69
601,312	1828,15
601,564	906,57
601,816	554,32
602,068	2078,01
602,321	2094,39
602,574	879,94
602,827	562,51
603,08	1692,99
603,333	1934,65
603,587	832,84
603,84	996,68
604,094	1873,21
604,348	1496,38
604,602	626
604,856	816,46
605,111	1822,01
605,365	1905,98
605,62	898,38
605,875	611,66
606,13	1752,38
606,386	1617,21
606,641	734,54
606,897	750,92
607,153	1555,77
607,409	2094,39
607,665	488,78
607,921	689,48
608,178	1353,02
608,435	1754,43
608,692	695,63
608,949	781,64
609,206	1985,85
609,463	1752,38
609,721	838,98
609,979	765,26
610,237	1582,4
610,495	1959,22
610,753	1037,64
611,012	849,22
611,27	1828,15
611,529	1840,44
611,788	800,07
612,047	718,15
612,307	1154,37
612,566	1674,56
612,826	636,24
613,086	793,93
613,346	1250,63
613,606	1774,91
613,867	671,05
614,127	855,37
614,388	1226,05
614,649	1938,74
614,91	562,51
615,172	898,38
615,433	1389,89
615,695	1396,03
615,957	892,23
616,219	775,5
616,481	1926,46
616,743	1455,42
617,006	439,63
617,269	793,93
617,532	1733,95
617,795	1627,45
618,058	681,29
618,322	849,22
618,586	1684,8
618,849	1285,44
619,114	963,91
619,378	492,88
619,642	1566,01
619,907	1848,63
620,172	701,77
620,437	736,59
620,702	1713,47
620,967	1236,29
621,233	570,7
621,499	630,09
621,765	1393,98
622,031	1752,38
622,297	441,68
622,564	605,52
622,83	1398,08
623,097	2098,49
623,364	585,04
623,631	959,81
623,899	1801,53
624,166	1615,16
624,434	439,63
624,702	312,66
624,97	1897,78
625,239	1166,66
625,507	546,12
625,776	759,11
626,045	1211,71
626,314	1541,44
626,584	523,6
626,853	435,53
627,123	1363,26
627,393	789,83
627,663	587,08
627,933	486,73
628,204	1733,95
628,474	1547,58
628,745	406,86
629,016	681,29
629,287	1422,66
629,559	1088,84
629,83	318,8
630,102	458,06
630,374	1029,45
630,646	1957,18
630,919	556,36
631,191	718,15
631,464	1293,63
631,737	990,53
632,01	312,66
632,284	496,97
632,557	1742,14
632,831	1541,44
633,105	410,96
633,379	439,63
633,654	927,05
633,928	1398,08
634,203	423,25
634,478	435,53
634,753	1381,7
635,028	1418,56
635,304	572,75
635,58	433,49
635,856	1207,62
636,132	1144,13
636,408	343,38
636,685	374,1
636,961	1213,76
637,238	1178,95
637,515	408,91
637,793	382,29
638,07	1627,45
638,348	1193,28
638,626	458,06
638,904	593,23
639,182	644,43
639,461	800,07
639,74	320,85
640,019	574,8
640,298	521,55
640,577	1236,29
640,857	333,14
641,136	316,75
641,416	1088,84
641,696	1684,8
641,977	425,29
642,257	406,86
642,538	1291,59
642,819	1760,57
643,1	234,83
643,382	32,08
643,663	1385,79
643,945	1119,56
644,227	447,82
644,509	253,27
644,792	1742,14
645,074	1269,06
645,357	185,68
645,64	62,8
645,923	1127,75
646,207	1211,71
646,49	324,94
646,774	95,57
647,058	1051,97
647,342	1400,13
647,627	103,76
647,911	87,38
648,196	1467,71
648,481	1408,32
648,767	220,5
649,052	269,65
649,338	769,35
649,624	845,13
649,91	46,42
650,196	165,2
650,483	1314,11
650,77	1498,43
651,057	464,21
651,344	396,62
651,631	1054,02
651,919	869,7
652,207	234,83
652,495	222,55
652,783	1133,89
653,071	1271,11
653,36	-125,61
653,649	208,21
653,938	990,53
654,227	1207,62
654,517	482,64
654,806	75,09
655,096	767,31
655,387	1285,44
655,677	298,32
655,968	120,15
656,258	664,91
656,549	1365,31
656,841	263,51
657,132	124,24
657,424	824,65
657,716	1242,43
658,008	25,94
658,3	58,71
658,592	998,73
658,885	1328,45
659,178	5,46
659,471	-166,57
659,765	578,89
660,058	976,2
660,352	-80,55
660,646	-35,5
660,94	1439,04
661,235	1072,45
661,53	431,44
661,824	-256,68
662,12	1045,83
662,415	349,52
662,711	-27,31
663,006	234,83
663,302	841,03
663,599	556,36
663,895	-49,83
664,192	253,27
664,489	1203,52
664,786	1148,23
665,083	-152,23
665,381	-107,18
665,678	822,6
665,976	996,68
666,275	-221,86
666,573	54,61
666,872	570,7
667,171	853,32
667,47	-162,47
667,769	-223,91
668,069	1137,99
668,368	1029,45
668,668	-326,31
668,969	-191,14
669,269	720,2
669,57	480,59
669,871	-84,65
670,172	-45,74
670,473	1082,69
670,775	1246,53
671,077	-248,49
671,379	-80,55
671,681	1176,9
671,983	859,46
672,286	-256,68
672,589	-84,65
672,892	873,8
673,196	849,22
673,499	-223,91
673,803	-76,46
674,107	871,75
674,411	716,11
674,716	-6,83
675,021	25,94
675,326	669
675,631	1080,64
675,936	-389,8
676,242	-150,18
676,548	513,36
676,854	1371,46
677,16	-371,36
677,467	-150,18
677,774	836,94
678,081	548,17
678,388	171,35
678,696	-6,83
679,004	959,81
679,312	1295,68
679,62	-31,4
679,928	-23,21
680,237	1064,26
680,546	214,35
680,855	-27,31
681,164	-193,19
681,474	777,55
681,784	1031,49
682,094	-166,57
682,404	-363,17
682,715	1039,69
683,026	302,42
683,337	-185
683,648	85,33
683,959	1193,28
684,271	922,95
684,583	-117,42
684,895	-494,24
685,208	908,62
685,52	894,28
685,833	-129,7
686,146	-264,87
686,46	1064,26
686,773	626
687,087	-137,9
687,401	-361,13
687,716	816,46
688,03	849,22
688,345	-486,05
688,66	-78,51
688,975	824,65
689,291	963,91
689,607	253,27
689,923	-285,35
690,239	562,51
690,555	970,05
690,872	-232,1
691,189	-381,6
691,506	693,58
691,824	1074,5
692,142	-342,69
692,459	-260,77
692,778	447,82
693,096	918,86
693,415	146,77
693,734	-133,8
694,053	521,55
694,372	234,83
694,692	-408,23
695,012	-133,8
695,332	433,49
695,652	664,91
695,973	-109,22
696,294	-305,83
696,615	400,72
696,936	1045,83
697,258	-535,2
697,579	-219,82
697,902	277,84
698,224	427,34
698,546	-367,27
698,869	-477,86
699,192	361,81
699,516	879,94
699,839	-375,46
700,163	-238,25
700,487	300,37
700,811	1246,53
701,136	-559,78
701,461	-295,59
701,786	664,91
702,111	1154,37
702,436	-453,28
702,762	-150,18
703,088	857,42
703,415	1269,06
703,741	-154,28
704,068	-373,41
704,395	417,1
704,722	757,07
705,05	-338,6
705,377	-344,74
705,705	636,24
706,034	550,22
706,362	-551,59
706,691	-606,88
707,02	775,5
707,349	755,02
707,679	-254,63
708,009	-570,02
708,339	613,71
708,669	566,6
709	-379,56
709,33	-514,72
709,661	529,74
709,993	439,63
710,324	-268,97
710,656	-393,89
710,988	709,96
711,321	902,47
711,653	-670,37
711,986	-281,25
712,319	111,96
712,652	660,81
712,986	-135,85
713,32	-465,57
713,654	990,53
713,988	955,72
714,323	-324,26
714,658	-346,79
714,993	564,56
715,328	513,36
715,664	-271,01
716	-107,18
716,336	1070,4
716,673	410,96
717,009	-260,77
717,346	-174,76
717,683	1094,98
718,021	507,21
718,359	-436,9
718,697	-236,2
719,035	429,39
719,373	267,6
719,712	-74,41
720,051	-535,2
720,39	849,22
720,73	447,82
721,07	-420,52
721,41	-326,31
721,75	828,74
722,091	652,62
722,432	-402,08
722,773	-131,75
723,114	484,69
723,456	671,05
723,798	-393,89
724,14	-248,49
724,482	447,82
724,825	646,48
725,168	-139,94
725,511	-344,74
725,855	607,56
726,198	331,09
726,542	-395,94
726,887	38,23
727,231	896,33
727,576	245,07
727,921	-262,82
728,266	-524,96
728,612	486,73
728,958	769,35
729,304	-494,24
729,651	105,81
729,997	378,19
730,344	443,73
730,691	-451,24
731,039	-25,26
731,387	523,6
731,735	288,08
732,083	-330,41
732,431	-203,43
732,78	349,52
733,129	-150,18
733,479	-436,9
733,828	-236,2
734,178	314,7
734,528	85,33
734,879	-281,25
735,23	-412,32
735,581	644,43
735,932	468,3
736,283	-330,41
736,635	-557,73
736,987	968,01
737,34	914,76
737,692	-510,63
738,045	-514,72
738,398	529,74
738,752	712,01
739,105	-576,16
739,459	-10,92
739,814	783,69
740,168	826,7
740,523	-434,85
740,878	-244,39
741,233	439,63
741,589	851,27
741,945	-426,66
742,301	-314,02
742,657	804,17
743,014	304,46
743,371	-367,27
743,728	189,78
744,086	570,7
744,444	496,97
744,802	-543,39
745,16	-391,84
745,519	597,32
745,878	283,99
746,237	-537,25
746,597	-228,01
746,956	984,39
747,316	402,77
747,677	-531,11
748,037	-320,17
748,398	329,04
748,759	617,8
749,121	-209,58
749,482	-209,58
749,844	316,75
750,207	71
750,569	-744,1
750,932	-281,25
751,295	1072,45
751,659	572,75
752,022	-533,15
752,386	11,61
752,751	417,1
753,115	89,43
753,48	-434,85
753,845	-395,94
754,21	519,5
754,576	320,85
754,942	-588,45
755,308	-240,3
755,675	343,38
756,041	992,58
756,409	-596,64
756,776	-289,45
757,144	1045,83
757,511	709,96
757,88	-404,13
758,248	-694,94
758,617	-55,98
758,986	488,78
759,355	-266,92
759,725	-256,68
760,095	42,32
760,465	795,98
760,836	-559,78
761,206	-508,58
761,577	906,57
761,949	138,58
762,32	-164,52
762,692	-549,54
763,065	228,69
763,437	128,34
763,81	-506,53
764,183	-303,78
764,556	976,2
764,93	347,47
765,304	-2,73
765,678	-189,1
766,053	357,71
766,428	525,65
766,803	-596,64
767,178	-436,9
767,554	-27,31
767,93	349,52
768,306	-647,84
768,683	-502,43
769,06	681,29
769,437	398,67
769,814	-563,87
770,192	-543,39
770,57	345,42
770,948	1090,88
771,327	-418,47
771,706	-596,64
772,085	425,29
772,464	939,34
772,844	-348,84
773,224	-608,93
773,605	15,7
773,985	197,97
774,366	-232,1
774,748	-12,97
775,129	718,15
775,511	664,91
775,893	-436,9
776,276	-436,9
776,658	763,21
777,041	384,34
777,425	-600,74
777,808	-434,85
778,192	136,53
778,576	804,17
778,961	-731,81
779,346	-502,43
779,731	533,84
780,116	-84,65
780,502	-459,43
780,888	-447,14
781,274	333,14
781,661	103,76
782,048	-656,03
782,435	-580,26
782,823	341,33
783,21	443,73
783,598	-494,24
783,987	-412,32
784,376	765,26
784,765	132,44
785,154	-441
785,544	-494,24
785,933	609,61
786,324	185,68
786,714	-256,68
787,105	-629,41
787,496	437,58
787,888	226,64
788,279	-649,89
788,671	-551,59
789,064	380,24
789,456	533,84
789,849	-776,86
790,242	-598,69
790,636	136,53
791,03	464,21
791,424	-686,75
791,818	73,04
792,213	714,06
792,608	521,55
793,004	-363,17
793,399	-748,19
793,795	390,48
794,192	206,16
794,588	-563,87
794,985	-719,52
795,382	425,29
795,78	273,75
796,178	-369,32
796,576	-551,59
796,974	1021,25
797,373	318,8
797,772	-666,27
798,172	-613,03
798,571	324,94
798,971	712,01
799,372	-422,56
799,772	-391,84
800,173	662,86
800,574	382,29
800,976	-502,43
801,378	-664,22
801,78	-8,87
802,182	-176,81
802,585	-371,36
802,988	-670,37
803,392	83,28
803,795	105,81
804,199	-576,16
804,604	-441
805,008	464,21
805,413	877,9
805,819	-492,2
806,224	-692,9
806,63	331,09
807,036	515,41
807,443	-475,81
807,85	-445,09
808,257	503,12
808,664	449,87
809,072	-115,37
809,48	-303,78
809,889	681,29
810,297	564,56
810,706	-144,04
811,116	-510,63
811,526	255,31
811,936	218,45
812,346	-629,41
812,757	-516,77
813,167	394,58
813,579	259,41
813,99	-406,18
814,402	-578,21
814,814	943,43
815,227	271,7
815,64	-711,33
816,053	-502,43
816,467	589,13
816,88	419,15
817,294	-295,59
817,709	-365,22
818,124	93,52
818,539	843,08
818,954	-297,64
819,37	-211,62
819,786	5,46
820,202	480,59
820,619	-813,73
821,036	-598,69
821,453	664,91
821,871	353,62
822,289	-627,36
822,707	-617,12
823,126	443,73
823,545	68,95
823,964	-567,97
824,384	-576,16
824,804	58,71
825,224	499,02
825,645	-289,45
826,065	-621,22
826,487	599,37
826,908	630,09
827,33	-410,28
827,752	-121,51
828,175	384,34
828,598	628,04
829,021	-225,96
829,444	202,07
829,868	515,41
830,292	116,05
830,717	-596,64
831,142	-572,07
831,567	259,41
831,992	234,83
832,418	11,61
832,844	-645,79
833,27	238,93
833,697	255,31
834,124	-727,71
834,552	-737,95
834,979	804,17
835,408	603,47
835,836	-651,94
836,265	-465,57
836,694	91,48
837,123	525,65
837,553	-598,69
837,983	-662,18
838,413	505,17
838,844	468,3
839,275	-662,18
839,706	-271,01
840,138	1004,87
840,57	171,35
841,003	-508,58
841,435	-432,8
841,868	175,44
842,302	283,99
842,735	-432,8
843,169	-600,74
843,604	527,69
844,039	470,35
844,474	-615,07
844,909	-645,79
845,345	533,84
845,781	462,16
846,217	-580,26
846,654	-653,98
847,091	599,37
847,528	191,83
847,966	-592,55
848,404	-469,67
848,842	1054,02
849,281	-189,1
849,72	-422,56
850,16	-484
850,599	236,88
851,039	126,29
851,48	-273,06
851,921	-584,35
852,362	435,53
852,803	746,83
853,245	-780,96
853,687	-481,96
854,129	669
854,572	54,61
855,015	-715,42
855,459	-578,21
855,903	-33,45
856,347	423,25
856,791	-449,19
857,236	-535,2
857,681	802,12
858,127	1203,52
858,572	-180,9
859,019	-520,87
859,465	587,08
859,912	415,05
860,359	-838,3
860,807	-615,07
861,255	91,48
861,703	562,51
862,151	-451,24
862,6	-101,03
863,05	439,63
863,499	247,12
863,949	-510,63
864,4	-707,23
864,85	908,62
865,301	529,74
865,752	-524,96
866,204	-633,51
866,656	81,24
867,109	693,58
867,561	-666,27
868,014	-273,06
868,468	531,79
868,921	611,66
869,376	-459,43
869,83	-527,01
870,285	339,28
870,74	62,8
871,195	-385,7
871,651	-445,09
872,107	800,07
872,564	202,07
873,021	-768,67
873,478	-756,38
873,936	595,28
874,394	605,52
874,852	-592,55
875,31	-365,22
875,769	451,92
876,229	963,91
876,688	-397,99
877,148	-531,11
877,609	185,68
878,069	136,53
878,531	-273,06
878,992	-604,83
879,454	322,9
879,916	417,1
880,378	-430,76
880,841	-625,31
881,304	-55,98
881,768	-15,02
882,232	-584,35
882,696	-268,97
883,161	44,37
883,626	337,23
884,091	-402,08
884,557	-565,92
885,023	-125,61
885,489	705,87
885,956	-764,57
886,423	-619,17
886,89	-33,45
887,358	451,92
887,826	-545,44
888,295	-502,43
888,763	68,95
889,233	1045,83
889,702	-461,48
890,172	-567,97
890,642	238,93
891,113	171,35
891,584	-178,86
892,055	-531,11
892,527	511,31
892,999	730,44
893,472	-508,58
893,944	-369,32
894,417	302,42
894,891	58,71
895,365	-404,13
895,839	-354,98
896,314	365,9
896,789	-354,98
897,264	-559,78
897,74	-678,56
898,216	621,9
898,692	535,89
899,169	-621,22
899,646	-576,16
900,123	349,52
900,601	845,13
901,079	-608,93
901,558	-410,28
902,037	654,67
902,516	357,71
902,996	-737,95
903,476	-719,52
903,956	165,2
904,437	603,47
904,918	-625,31
905,399	-672,42
905,881	503,12
906,363	466,25
906,846	-649,89
907,329	-510,63
907,812	-131,75
908,296	476,49
908,78	-707,23
909,264	-647,84
909,749	124,24
910,234	671,05
910,719	-707,23
911,205	-402,08
911,691	-178,86
912,178	456,01
912,665	-166,57
913,152	-576,16
913,64	128,34
914,128	474,45
914,616	-498,34
915,105	-500,39
915,594	406,86
916,084	929,1
916,574	-492,2
917,064	-690,85
917,555	-55,98
918,046	515,41
918,537	-141,99
919,029	-944,8
919,521	152,91
920,013	765,26
920,506	-514,72
920,999	-701,09
921,493	564,56
921,987	197,97
922,481	-289,45
922,976	-631,46
923,471	195,92
923,967	361,81
924,462	-522,91
924,959	-510,63
925,455	501,07
925,952	384,34
926,449	-692,9
926,947	-559,78
927,445	232,79
927,944	316,75
928,442	-772,77
928,942	-746,14
929,441	628,04
929,941	77,14
930,442	-537,25
930,942	-557,73
931,443	644,43
931,945	-74,41
932,447	-656,03
932,949	-567,97
933,451	173,39
933,954	218,45
934,458	-354,98
934,961	-672,42
935,465	5,46
935,97	81,24
936,475	-387,75
936,98	-795,29
937,486	-232,1
937,992	62,8
938,498	-613,03
939,005	-475,81
939,512	193,87
940,019	496,97
940,527	-535,2
941,035	-320,17
941,544	537,93
942,053	263,51
942,562	-297,64
943,072	-191,14
943,582	496,97
944,093	183,63
944,604	-742,05
945,115	-559,78
945,627	662,86
946,139	793,93
946,651	-547,49
947,164	-473,76
947,677	408,91
948,191	243,03
948,705	-594,59
949,219	-610,98
949,734	128,34
950,249	558,41
950,765	-510,63
951,281	-551,59
951,797	1316,16
952,314	515,41
952,831	-590,5
953,348	-715,42
953,866	685,39
954,384	240,98
954,903	-600,74
955,422	-789,15
955,941	222,55
956,461	310,61
956,981	-686,75
957,502	-391,84
958,023	494,93
958,544	419,15
959,066	-428,71
959,588	-760,48
960,11	64,85
960,633	765,26
961,156	-582,31
961,68	-606,88
962,204	687,43
962,729	-94,89
963,253	-547,49
963,779	-107,18
964,304	511,31
964,83	795,98
965,357	-754,34
965,883	-494,24
966,411	400,72
966,938	429,39
967,466	-516,77
967,994	-707,23
968,523	111,96
969,052	787,79
969,582	-641,7
970,112	-664,22
970,642	15,7
971,173	787,79
971,704	-625,31
972,235	-371,36
972,767	415,05
973,3	343,38
973,832	-412,32
974,365	-715,42
974,899	505,17
975,433	349,52
975,967	-805,53
976,502	-383,65
977,037	300,37
977,572	816,46
978,108	-721,57
978,644	-748,19
979,181	1045,83
979,718	558,41
980,255	-989,85
980,793	-381,6
981,331	-225,96
981,87	693,58
982,409	-551,59
982,948	-387,75
983,488	349,52
984,028	814,41
984,569	-416,42
985,11	-516,77
985,651	685,39
986,193	406,86
986,735	-731,81
987,278	-666,27
987,821	-215,72
988,364	326,99
988,908	-393,89
989,452	-658,08
989,997	-455,33
990,542	441,68
991,088	-688,8
991,633	-240,3
992,18	202,07
992,726	-162,47
993,273	-535,2
993,821	-379,56
994,369	329,04
994,917	709,96
995,465	-666,27
996,014	-742,05
996,564	529,74
997,114	165,2
997,664	-305,83
998,215	-715,42
998,766	413,01
999,317	-92,84
999,869	-457,38
1000,421	-692,9
1000,974	499,02
1001,527	628,04
1002,081	-660,13
1002,635	-377,51
1003,189	367,95
1003,744	609,61
1004,299	-785,05
1004,854	-617,12
1005,41	718,15
1005,967	181,59
1006,523	-486,05
1007,081	-426,66
1007,638	380,24
1008,196	351,57
1008,755	-658,08
1009,313	-453,28
1009,873	503,12
1010,432	-90,79
1010,992	-387,75
1011,553	-410,28
1012,114	304,46
1012,675	-94,89
1013,237	-301,73
1013,799	-225,96
1014,361	525,65
1014,924	-117,42
1015,487	-721,57
1016,051	-617,12
1016,615	515,41
1017,18	357,71
1017,745	-664,22
1018,31	-199,34
1018,876	793,93
1019,442	378,19
1020,009	-447,14
1020,576	-705,18
1021,143	294,22
1021,711	560,46
1022,28	-465,57
1022,848	-617,12
1023,417	767,31
1023,987	243,03
1024,557	-649,89
1025,127	-670,37
1025,698	-150,18
1026,269	-39,59
1026,841	-764,57
1027,413	-414,37
1027,985	71
1028,558	189,78
1029,131	-682,66
1029,705	-477,86
1030,279	384,34
1030,854	396,62
1031,429	-690,85
1032,004	-246,44
1032,58	613,71
1033,156	9,56
1033,733	-699,04
1034,31	-651,94
1034,887	505,17
1035,465	527,69
1036,043	-912,03
1036,622	-559,78
1037,201	218,45
1037,781	603,47
1038,361	-723,62
1038,941	-797,34
1039,522	419,15
1040,103	808,26
1040,685	-670,37
1041,267	-342,69
1041,85	1078,6
1042,433	578,89
1043,016	-682,66
1043,6	-430,76
1044,184	-322,21
1044,769	501,07
1045,354	-494,24
1045,939	-664,22
1046,525	251,22
1047,111	378,19
1047,698	-453,28
1048,285	-795,29
1048,873	482,64
1049,461	-80,55
1050,049	-623,27
1050,638	-606,88
1051,228	23,89
1051,817	734,54
1052,407	-627,36
1052,998	-338,6
1053,589	453,97
1054,18	628,04
1054,772	-879,26
1055,365	-674,46
1055,957	431,44
1056,55	271,7
1057,144	-539,3
1057,738	-666,27
1058,333	136,53
1058,927	30,04
1059,523	-559,78
1060,118	-735,9
1060,715	38,23
1061,311	644,43
1061,908	-707,23
1062,506	-424,61
1063,103	525,65
1063,702	-139,94
1064,3	-811,68
1064,9	-719,52
1065,499	812,36
1066,099	-31,4
1066,7	-621,22
1067,301	-842,4
1067,902	673,1
1068,504	644,43
1069,106	-377,51
1069,709	-426,66
1070,312	689,48
1070,915	466,25
1071,519	-709,28
1072,123	-481,96
1072,728	474,45
1073,333	261,46
1073,939	-223,91
1074,545	-570,02
1075,152	480,59
1075,759	142,68
1076,366	-727,71
1076,974	-375,46
1077,582	259,41
1078,191	621,9
1078,8	-481,96
1079,41	-875,17
1080,02	245,07
1080,63	290,13
1081,241	-64,17
1081,852	-869,02
1082,464	329,04
1083,076	378,19
1083,689	-574,11
1084,302	-520,87
1084,915	685,39
1085,529	486,73
1086,144	-586,4
1086,759	-539,3
1087,374	105,81
1087,99	267,6
1088,606	-639,65
1089,222	-541,35
1089,839	423,25
1090,457	292,18
1091,075	-477,86
1091,693	-801,44
1092,312	501,07
1092,931	767,31
1093,551	-613,03
1094,171	-342,69
1094,792	353,62
1095,413	105,81
1096,034	-592,55
1096,656	-531,11
1097,278	570,7
1097,901	337,23
1098,524	-574,11
1099,148	-363,17
1099,772	857,42
1100,397	398,67
1101,022	-727,71
1101,647	-596,64
1102,273	349,52
1102,899	591,18
1103,526	-864,93
1104,153	-445,09
1104,781	501,07
1105,409	712,01
1106,038	-740
1106,667	-842,4
1107,296	95,57
1107,926	181,59
1108,556	-199,34
1109,187	-533,15
1109,818	292,18
1110,45	554,32
1111,082	-430,76
1111,715	-600,74
1112,348	308,56
1112,981	234,83
1113,615	-246,44
1114,25	-514,72
1114,885	148,82
1115,52	193,87
1116,156	-723,62
1116,792	-527,01
1117,428	435,53
1118,066	95,57
1118,703	-377,51
1119,341	-545,44
1119,98	644,43
1120,618	726,35
1121,258	-686,75
1121,898	-783,01
1122,538	376,14
1123,179	-86,7
1123,82	-543,39
1124,461	-459,43
1125,103	576,84
1125,746	132,44
1126,389	-420,52
1127,032	-770,72
1127,676	447,82
1128,32	826,7
1128,965	-567,97
1129,61	-404,13
1130,256	261,46
1130,902	605,52
1131,549	-567,97
1132,196	-572,07
1132,844	685,39
1133,491	589,13
1134,14	-527,01
1134,789	-594,59
1135,438	1064,26
1136,088	64,85
1136,738	-770,72
1137,389	-705,18
1138,04	431,44
1138,692	978,25
1139,344	-651,94
1139,996	-543,39
1140,649	353,62
1141,303	574,8
1141,957	-453,28
1142,611	-549,54
1143,266	304,46
1143,921	314,7
1144,577	-596,64
1145,233	-576,16
1145,89	64,85
1146,547	572,75
1147,205	-783,01
1147,863	-453,28
1148,521	419,15
1149,18	632,14
1149,84	-727,71
1150,5	-598,69
1151,16	240,98
1151,821	648,52
1152,482	-545,44
1153,144	-146,09
1153,806	269,65
1154,469	402,77
1155,132	-725,66
1155,796	-494,24
1156,46	591,18
1157,124	902,47
1157,789	-756,38
1158,455	-696,99
1159,121	263,51
1159,787	-43,69
1160,454	-469,67
1161,121	-535,2
1161,789	103,76
1162,457	662,86
1163,126	-436,9
1163,795	-539,3
1164,465	376,14
1165,135	177,49
1165,806	-449,19
1166,477	-486,05
1167,148	-400,04
1167,82	439,63
1168,493	-844,45
1169,166	-363,17
1169,839	-15,02
1170,513	404,82
1171,187	-692,9
1171,862	-670,37
1172,537	269,65
1173,213	472,4
1173,889	-660,13
1174,566	-559,78
1175,243	666,96
1175,921	114
1176,599	-467,62
1177,278	-412,32
1177,957	-76,46
1178,636	795,98
1179,316	-361,13
1179,997	-826,01
1180,678	447,82
1181,359	791,88
1182,041	-699,04
1182,723	-729,76
1183,406	660,81
1184,089	103,76
1184,773	-805,53
1185,457	-766,62
1186,142	91,48
1186,827	1307,97
1187,513	-756,38
1188,199	-230,06
1188,886	87,38
1189,573	345,42
1190,26	-592,55
1190,948	-543,39
1191,637	-8,87
1192,326	128,34
1193,015	-688,8
1193,705	-768,67
1194,396	-2,73
1195,087	171,35
1195,778	-377,51
1196,47	-666,27
1197,162	341,33
1197,855	478,54
1198,548	-637,6
1199,242	-821,92
1199,936	339,28
1200,631	562,51
1201,326	-821,92
1202,022	-686,75
1202,718	755,02
1203,415	353,62
1204,112	-873,12
1204,81	-533,15
1205,508	167,25
1206,206	939,34
1206,905	-576,16
1207,605	-656,03
1208,305	204,11
1209,005	419,15
1209,706	-635,55
1210,408	-748,19
1211,11	230,74
1211,812	476,49
1212,515	-539,3
1213,218	-592,55
1213,922	374,1
1214,627	226,64
1215,331	-484
1216,037	-641,7
1216,743	-31,4
1217,449	392,53
1218,156	-453,28
1218,863	-451,24
1219,571	87,38
1220,279	677,2
1220,988	-737,95
1221,697	-596,64
1222,406	505,17
1223,117	107,86
1223,827	-453,28
1224,538	-635,55
1225,25	259,41
1225,962	406,86
1226,675	-965,28
1227,388	-420,52
1228,101	308,56
1228,815	25,94
1229,53	-547,49
1230,245	-377,51
1230,961	376,14
1231,677	193,87
1232,393	-639,65
1233,11	-457,38
1233,828	888,14
1234,546	480,59
1235,264	-549,54
1235,983	-363,17
1236,702	1062,21
1237,422	288,08
1238,143	-336,55
1238,864	-664,22
1239,585	654,67
1240,307	-326,31
1241,029	-760,48
1241,752	-215,72
1242,476	662,86
1243,2	742,73
1243,924	-533,15
1244,649	-502,43
1245,374	644,43
1246,1	802,12
1246,826	-760,48
1247,553	-524,96
1248,28	419,15
1249,008	425,29
1249,737	-778,91
1250,465	-496,29
1251,195	521,55
1251,925	734,54
1252,655	-584,35
1253,386	-436,9
1254,117	288,08
1254,849	107,86
1255,581	-596,64
1256,314	-406,18
1257,047	656,72
1257,781	464,21
1258,515	-631,46
1259,25	-162,47
1259,985	333,14
1260,721	374,1
1261,457	-461,48
1262,194	-924,32
1262,931	185,68
1263,669	752,97
1264,407	-438,95
1265,146	-793,25
1265,885	228,69
1266,625	214,35
1267,365	-576,16
1268,106	-625,31
1268,847	318,8
1269,589	73,04
1270,331	-352,93
1271,074	-434,85
1271,817	392,53
1272,561	394,58
1273,305	-350,89
1274,05	-471,72
1274,795	353,62
1275,541	390,48
1276,287	-846,49
1277,034	-785,05
1277,781	50,52
1278,529	542,03
1279,277	-772,77
1280,026	-772,77
1280,775	789,83
1281,525	-539,3
1282,275	-879,26
1283,026	-223,91
1283,777	394,58
1284,529	394,58
1285,281	-598,69
1286,034	-823,97
1286,788	783,69
1287,541	347,47
1288,296	-830,11
1289,051	-383,65
1289,806	404,82
1290,562	513,36
1291,318	-682,66
1292,075	-461,48
1292,832	730,44
1293,59	726,35
1294,349	-641,7
1295,108	-617,12
1295,867	1033,54
1296,627	390,48
1297,387	-797,34
1298,148	-445,09
1298,91	283,99
1299,672	91,48
1300,434	-623,27
1301,197	-719,52
1301,961	1170,76
1302,725	318,8
1303,489	-365,22
1304,254	-514,72
1305,02	421,2
1305,786	662,86
1306,552	-846,49
1307,319	-856,73
1308,087	652,62
1308,855	750,92
1309,624	-672,42
1310,393	-426,66
1311,162	-293,54
1311,933	533,84
1312,703	-613,03
1313,474	-400,04
1314,246	157,01
1315,018	597,32
1315,791	-213,67
1316,564	-707,23
1317,338	669
1318,112	245,07
1318,887	-803,49
1319,662	-498,34
1320,438	310,61
1321,214	107,86
1321,991	-469,67
1322,769	-647,84
1323,546	349,52
1324,325	-17,07
1325,104	-684,7
1325,883	-449,19
1326,663	-76,46
1327,444	353,62
1328,224	-629,41
1329,006	-514,72
1329,788	353,62
1330,571	310,61
1331,354	-336,55
1332,137	-762,53
1332,921	767,31
1333,706	-170,66
1334,491	-363,17
1335,277	-557,73
1336,063	124,24
1336,849	169,3
1337,637	-780,96
1338,424	-625,31
1339,213	853,32
1340,001	806,22
1340,791	-719,52
1341,581	-359,08
1342,371	374,1
1343,162	331,09
1343,953	-592,55
1344,745	-541,35
1345,537	509,26
1346,33	458,06
1347,124	-606,88
1347,918	-338,6
1348,712	943,43
1349,507	376,14
1350,303	-619,17
1351,099	-461,48
1351,896	40,28
1352,693	-277,16
1353,49	-557,73
1354,289	-514,72
1355,087	523,6
1355,887	685,39
1356,686	-481,96
1357,487	-582,31
1358,288	38,23
1359,089	269,65
1359,891	-232,1
1360,693	-557,73
1361,496	-193,19
1362,3	304,46
1363,104	-635,55
1363,908	-574,11
1364,713	755,02
1365,519	793,93
1366,325	-541,35
1367,131	-838,3
1367,939	277,84
1368,746	761,16
1369,555	-940,7
1370,363	-559,78
1371,173	894,28
1371,982	1099,08
1372,793	-633,51
1373,604	-823,97
1374,415	556,36
1375,227	773,45
1376,039	-760,48
1376,852	-658,08
1377,666	961,86
1378,48	429,39
1379,295	-729,76
1380,11	-740
1380,925	-84,65
1381,742	877,9
1382,558	-563,87
1383,376	-662,18
1384,193	390,48
1385,012	79,19
1385,831	-608,93
1386,65	-604,83
1387,47	218,45
1388,29	120,15
1389,111	-539,3
1389,933	-836,25
1390,755	681,29
1391,578	224,59
1392,401	-821,92
1393,225	-688,8
1394,049	761,16
1394,873	226,64
1395,699	-656,03
1396,525	-473,76
1397,351	673,1
1398,178	-96,94
1399,005	-539,3
1399,833	-1014,43
1400,662	525,65
1401,491	914,76
1402,321	-670,37
1403,151	-490,15
1403,981	333,14
1404,813	501,07
1405,644	-559,78
1406,477	-707,23
1407,309	273,75
1408,143	1203,52
1408,977	-658,08
1409,811	-649,89
1410,646	857,42
1411,482	779,59
1412,318	-508,58
1413,155	-608,93
1413,992	603,47
1414,829	-45,74
1415,668	-608,93
1416,506	-375,46
1417,346	718,15
1418,186	408,91
1419,026	-649,89
1419,867	-838,3
1420,709	638,28
1421,551	595,28
1422,393	-817,82
1423,236	-506,53
1424,08	341,33
1424,924	226,64
1425,769	-768,67
1426,614	-584,35
1427,46	482,64
1428,307	159,06
1429,154	-809,63
1430,001	-686,75
1430,849	394,58
1431,698	261,46
1432,547	-858,78
1433,397	-789,15
1434,247	529,74
1435,098	931,14
1435,949	-592,55
1436,801	-600,74
1437,653	25,94
1438,506	488,78
1439,36	-834,21
1440,214	-625,31
1441,069	492,88
1441,924	308,56
1442,78	-539,3
1443,636	-815,77
1444,493	314,7
1445,35	349,52
1446,208	-547,49
1447,067	-641,7
1447,926	345,42
1448,785	855,37
1449,645	-615,07
1450,506	-662,18
1451,367	398,67
1452,229	79,19
1453,091	-801,44
1453,954	-344,74
1454,818	234,83
1455,682	337,23
1456,546	-590,5
1457,412	-793,25
1458,277	679,24
1459,143	308,56
1460,01	-340,65
1460,878	-705,18
1461,745	251,22
1462,614	52,56
1463,483	-748,19
1464,352	-496,29
1465,223	654,67
1466,093	599,37
1466,964	-649,89
1467,836	-735,9
1468,709	683,34
1469,581	351,57
1470,455	-514,72
1471,329	-715,42
1472,203	-58,03
1473,079	66,9
1473,954	-236,2
1474,831	-770,72
1475,707	130,39
1476,585	122,2
1477,463	-658,08
1478,341	-598,69
1479,22	36,18
1480,1	468,3
1480,98	-842,4
1481,861	-768,67
1482,742	425,29
1483,624	603,47
1484,506	-420,52
1485,389	-588,45
1486,273	136,53
1487,157	202,07
1488,041	-647,84
1488,926	-776,86
1489,812	396,62
1490,699	357,71
1491,585	-647,84
1492,473	-572,07
1493,361	-223,91
1494,249	177,49
1495,139	-414,37
1496,028	-641,7
1496,919	23,89
1497,809	447,82
1498,701	-690,85
1499,593	-613,03
1500,485	253,27
1501,378	640,33
1502,272	-377,51
1503,166	-580,26
1504,061	718,15
1504,956	376,14
1505,852	-584,35
1506,749	-795,29
1507,646	398,67
1508,543	259,41
1509,442	-797,34
1510,34	-139,94
1511,24	998,73
1512,14	329,04
1513,04	-641,7
1513,941	-778,91
1514,843	1193,28
1515,745	-33,45
1516,648	-692,9
1517,551	-834,21
1518,455	-195,24
1519,359	-311,97
1520,264	-750,24
1521,17	-725,66
1522,076	120,15
1522,983	611,66
1523,89	-760,48
1524,798	-453,28
1525,706	320,85
1526,615	1312,07
1527,525	-789,15
1528,435	-527,01
1529,346	519,5
1530,257	179,54
1531,169	-371,36
1532,081	-756,38
1532,994	1092,93
1533,908	161,11
1534,822	-610,98
1535,737	-549,54
1536,652	288,08
1537,568	255,31
1538,484	-592,55
1539,401	-965,28
1540,319	925
1541,237	-96,94
1542,156	-768,67
1543,075	-660,13
1543,995	929,1
1544,916	1027,4
1545,837	-778,91
1546,758	-682,66
1547,68	554,32
1548,603	613,71
1549,527	-502,43
1550,451	-740
1551,375	400,72
1552,3	693,58
1553,226	-844,45
1554,152	-625,31
1555,079	773,45
1556,006	390,48
1556,934	-473,76
1557,863	-475,81
1558,792	838,98
1559,722	64,85
1560,652	-441
1561,583	-842,4
1562,514	-55,98
1563,446	11,61
1564,379	-879,26
1565,312	-496,29
1566,246	730,44
1567,18	343,38
1568,115	-510,63
1569,051	-639,65
1569,987	632,14
1570,924	1017,16
1571,861	-869,02
1572,799	-508,58
1573,737	556,36
1574,676	370
1575,616	-443,04
1576,556	-653,98
1577,497	-90,79
1578,438	138,58
1579,38	-676,51
1580,323	-459,43
1581,266	443,73
1582,21	777,55
1583,154	-690,85
1584,099	-821,92
1585,044	513,36
1585,99	752,97
1586,937	-385,7
1587,884	-518,82
1588,832	320,85
1589,78	857,42
1590,729	-637,6
1591,679	-408,23
1592,629	324,94
1593,58	474,45
1594,531	-537,25
1595,483	-430,76
1596,435	177,49
1597,388	38,23
1598,342	-346,79
1599,296	-502,43
1600,251	413,01
1601,207	779,59
1602,163	-578,21
1603,119	-633,51
1604,077	808,26
1605,034	859,46
1605,993	-459,43
1606,952	-51,88
1607,911	171,35
1608,872	357,71
1609,832	-764,57
1610,794	-774,81
1611,756	601,42
1612,718	410,96
1613,681	-322,21
1614,645	-596,64
1615,609	855,37
1616,574	333,14
1617,54	-195,24
1618,506	-553,63
1619,472	777,55
1620,44	738,63
1621,408	-113,32
1622,376	-422,56
1623,345	361,81
1624,315	705,87
1625,285	-484
1626,256	-516,77
1627,227	501,07
1628,199	-27,31
1629,172	-469,67
1630,145	-369,32
1631,119	382,29
1632,094	953,67
1633,069	-551,59
1634,044	-371,36
1635,02	222,55
1635,997	761,16
1636,975	-559,78
1637,953	-842,4
1638,931	990,53
1639,911	-2,73
1640,89	-830,11
1641,871	-584,35
1642,852	656,72
1643,833	496,97
1644,816	-768,67
1645,798	-830,11
1646,782	894,28
1647,766	103,76
1648,75	-658,08
1649,736	-598,69
1650,721	-162,47
1651,708	378,19
1652,695	-688,8
1653,682	-531,11
1654,671	431,44
1655,66	599,37
1656,649	-699,04
1657,639	-613,03
1658,63	-60,07
1659,621	210,26
1660,613	-858,78
1661,605	-770,72
1662,598	269,65
1663,592	132,44
1664,586	-928,41
1665,581	-735,9
1666,576	169,3
1667,572	361,81
1668,569	-576,16
1669,566	-688,8
1670,564	464,21
1671,563	787,79
1672,562	-615,07
1673,562	-289,45
1674,562	433,49
1675,563	531,79
1676,564	-314,02
1677,566	-549,54
1678,569	904,52
1679,572	-336,55
1680,576	-518,82
1681,581	-672,42
1682,586	251,22
1683,592	652,62
1684,598	-594,59
1685,605	-453,28
1686,613	603,47
1687,621	163,15
1688,63	-414,37
1689,639	-449,19
1690,649	228,69
1691,66	202,07
1692,671	-469,67
1693,683	-699,04
1694,696	11,61
1695,709	410,96
1696,722	-613,03
1697,737	-584,35
1698,752	13,65
1699,767	482,64
1700,783	-600,74
1701,8	-389,8
1702,818	304,46
1703,836	-94,89
1704,854	-737,95
1705,873	-637,6
1706,893	105,81
1707,914	337,23
1708,935	-567,97
1709,956	-567,97
1710,979	279,89
1712,002	269,65
1713,025	-615,07
1714,049	-481,96
1715,074	480,59
1716,099	466,25
1717,125	-645,79
1718,152	-690,85
1719,179	-39,59
1720,207	605,52
1721,235	-92,84
1722,265	-215,72
1723,294	255,31
1724,325	210,26
1725,355	-354,98
1726,387	-451,24
1727,419	300,37
1728,452	484,69
1729,485	-416,42
1730,519	-707,23
1731,554	38,23
1732,589	390,48
1733,625	-723,62
1734,662	-539,3
1735,699	-2,73
1736,736	724,3
1737,775	-649,89
1738,814	-563,87
1739,853	212,31
1740,894	228,69
1741,934	-441
1742,976	-703,14
1744,018	431,44
1745,061	230,74
1746,104	-715,42
1747,148	-635,55
1748,193	353,62
1749,238	382,29
1750,284	-486,05
1751,33	-778,91
1752,377	357,71
1753,425	947,53
1754,473	-600,74
1755,522	-572,07
1756,572	712,01
1757,622	503,12
1758,673	-752,29
1759,724	-584,35
1760,776	677,2
1761,829	685,39
1762,882	-326,31
1763,936	-649,89
1764,991	48,47
1766,046	998,73
1767,102	-441
1768,158	-811,68
1769,215	415,05
1770,273	484,69
1771,331	-436,9
1772,39	-729,76
1773,45	349,52
1774,51	370
1775,571	-694,94
1776,632	-172,71
1777,694	202,07
1778,757	499,02
1779,82	-334,5
1780,884	-486,05
1781,949	154,96
1783,014	496,97
1784,08	-895,64
1785,147	-613,03
1786,214	185,68
1787,282	83,28
1788,35	-363,17
1789,419	-340,65
1790,489	673,1
1791,559	443,73
1792,63	-678,56
1793,702	-404,13
1794,774	253,27
1795,847	460,11
1796,92	-385,7
1797,994	-520,87
1799,069	507,21
1800,144	1119,56
1801,22	-625,31
1802,297	-342,69
1803,374	-15,02
1804,452	419,15
1805,531	-715,42
1806,61	-348,84
1807,69	490,83
1808,77	-119,46
1809,851	-449,19
1810,933	-787,1
1812,015	691,53
1813,098	122,2
1814,182	-576,16
1815,266	-514,72
1816,351	271,7
1817,437	333,14
1818,523	-506,53
1819,61	-453,28
1820,697	283,99
1821,785	1142,08
1822,874	-537,25
1823,963	-576,16
1825,053	165,2
1826,144	419,15
1827,235	-580,26
1828,327	-567,97
1829,42	269,65
1830,513	-35,5
1831,607	-699,04
1832,701	-608,93
1833,796	277,84
1834,892	752,97
1835,989	-686,75
1837,086	-649,89
1838,183	324,94
1839,282	277,84
1840,381	-621,22
1841,48	-514,72
1842,581	374,1
1843,682	830,79
1844,783	-361,13
1845,885	-342,69
1846,988	718,15
1848,092	501,07
1849,196	-514,72
1850,301	-373,41
1851,406	27,99
1852,512	1054,02
1853,619	-541,35
1854,726	-682,66
1855,834	87,38
1856,943	593,23
1858,052	-631,46
1859,162	-469,67
1860,273	357,71
1861,384	718,15
1862,496	-608,93
1863,608	-715,42
1864,721	329,04
1865,835	130,39
1866,95	-617,12
1868,065	-637,6
1869,181	136,53
1870,297	621,9
1871,414	-395,94
1872,532	-756,38
1873,65	247,12
1874,769	216,4
1875,889	-649,89
1877,009	-281,25
1878,13	415,05
1879,252	779,59
1880,374	-494,24
1881,497	-637,6
1882,62	345,42
1883,745	142,68
1884,87	-838,3
1885,995	-742,05
1887,121	212,31
1888,248	38,23
1889,376	-740
1890,504	-662,18
1891,632	406,86
1892,762	64,85
1893,892	-723,62
1895,023	-551,59
1896,154	83,28
1897,286	267,6
1898,419	-735,9
1899,552	-365,22
1900,686	568,65
1901,821	417,1
1902,956	-641,7
1904,092	-539,3
1905,229	791,88
1906,366	484,69
1907,504	-623,27
1908,643	-682,66
1909,782	380,24
